
Integration time [ms]:   0.100
Averaging Nr. [scans]: 1000
Smoothing Nr. [pixels]: 0
Data measured with spectrometer [name]: 7213323SP
Wave   ;Sample   ;Dark     ;Reference;Scope Corrected for Dark
[nm]   ;[counts] ;[counts] ;[counts] ;[counts] 

 175.65;  183.436;  180.919;  180.414; 2.51683
 176.25;  203.725;  200.771;  201.051; 2.95367
 176.85;  198.952;  198.074;  197.041; 0.87865
 177.45;  201.384;  199.398;  199.894; 1.98608
 178.05;  191.309;  191.085;  190.085; 0.22401
 178.65;  191.076;  189.686;  189.195; 1.38963
 179.25;  186.545;  185.439;  186.282; 1.10594
 179.85;  195.078;  193.332;  191.669; 1.74617
 180.45;  186.424;  184.832;  185.031; 1.59231
 181.05;  228.548;  226.307;  226.588; 2.24104
 181.65;  188.067;  187.039;  188.083; 1.02766
 182.25;  209.816;  207.692;  206.883; 2.12378
 182.86;  205.310;  204.005;  202.121; 1.30429
 183.46;  204.396;  202.367;  200.708; 2.02852
 184.06;  186.458;  184.141;  185.033; 2.31758
 184.66;  167.718;  166.129;  164.643; 1.58901
 185.26;  209.987;  208.305;  214.998; 1.68204
 185.86;  191.041;  189.907;  191.880; 1.13457
 186.46;  212.865;  210.353;  211.614; 2.51184
 187.06;  194.677;  192.861;  194.406; 1.81589
 187.66;  216.488;  215.591;  216.525; 0.89658
 188.26;  222.055;  219.979;  220.940; 2.07647
 188.86;  200.070;  200.952;  200.640;-0.88179
 189.46;  197.680;  196.104;  198.052; 1.57624
 190.06;  188.499;  186.631;  188.358; 1.86809
 190.66;  193.873;  192.343;  194.493; 1.52982
 191.26;  213.322;  210.484;  212.779; 2.83811
 191.86;  208.331;  206.545;  207.622; 1.78638
 192.46;  206.479;  204.911;  206.770; 1.56812
 193.06;  209.116;  206.281;  207.841; 2.83493
 193.66;  199.424;  196.673;  199.942; 2.75095
 194.26;  215.155;  214.002;  218.472; 1.15329
 194.86;  182.165;  181.785;  184.097; 0.37965
 195.46;  190.234;  189.136;  189.176; 1.09753
 196.06;  202.177;  202.019;  202.533; 0.15796
 196.66;  181.416;  179.580;  181.286; 1.83625
 197.26;  180.461;  178.678;  180.080; 1.78350
 197.86;  211.330;  208.508;  210.197; 2.82178
 198.46;  178.945;  177.168;  179.072; 1.77657
 199.06;  206.292;  204.760;  206.441; 1.53223
 199.66;  195.729;  193.588;  194.867; 2.14121
 200.26;  185.604;  182.810;  185.670; 2.79421
 200.85;  202.135;  200.569;  202.080; 1.56626
 201.45;  193.805;  193.142;  195.434; 0.66235
 202.05;  195.392;  193.539;  195.645; 1.85318
 202.65;  190.285;  188.779;  189.896; 1.50636
 203.25;  181.329;  179.750;  181.206; 1.57907
 203.85;  195.487;  193.742;  195.949; 1.74462
 204.45;  224.749;  223.319;  226.293; 1.43028
 205.05;  169.848;  168.522;  170.599; 1.32596
 205.65;  177.597;  176.045;  177.581; 1.55194
 206.25;  203.904;  202.882;  205.331; 1.02192
 206.85;  182.588;  180.907;  183.435; 1.68086
 207.45;  190.459;  189.768;  191.637; 0.69134
 208.05;  180.442;  177.930;  180.242; 2.51194
 208.65;  181.823;  179.849;  182.976; 1.97382
 209.25;  173.988;  173.287;  174.426; 0.70076
 209.84;  203.213;  202.179;  203.273; 1.03367
 210.44;  182.547;  182.224;  184.524; 0.32304
 211.04;  219.446;  216.133;  219.523; 3.31327
 211.64;  184.437;  182.315;  184.227; 2.12199
 212.24;  194.914;  193.615;  196.408; 1.29953
 212.84;  190.279;  188.539;  191.061; 1.73956
 213.44;  178.354;  175.962;  179.735; 2.39177
 214.04;  176.239;  174.930;  178.889; 1.30952
 214.64;  194.878;  192.531;  196.183; 2.34677
 215.24;  173.931;  172.409;  175.860; 1.52176
 215.83;  195.062;  194.541;  195.308; 0.52065
 216.43;  162.641;  162.022;  164.475; 0.61947
 217.03;  170.502;  169.678;  173.835; 0.82395
 217.63;  175.795;  174.214;  178.008; 1.58118
 218.23;  185.893;  184.270;  187.688; 1.62278
 218.83;  177.609;  175.814;  179.547; 1.79547
 219.43;  174.374;  173.026;  177.218; 1.34863
 220.03;  166.779;  164.787;  168.913; 1.99128
 220.62;  171.836;  170.551;  174.999; 1.28511
 221.22;  183.872;  181.366;  185.496; 2.50621
 221.82;  187.894;  186.418;  189.660; 1.47552
 222.42;  165.520;  164.503;  168.935; 1.01716
 223.02;  179.292;  177.713;  182.327; 1.57902
 223.62;  169.563;  167.507;  175.421; 2.05594
 224.22;  189.768;  187.944;  195.708; 1.82372
 224.81;  183.559;  181.577;  190.209; 1.98222
 225.41;  181.947;  179.759;  189.807; 2.18806
 226.01;  168.044;  166.718;  175.050; 1.32589
 226.61;  170.514;  169.448;  178.854; 1.06617
 227.21;  171.234;  168.681;  178.313; 2.55340
 227.81;  196.452;  194.556;  205.112; 1.89661
 228.40;  164.840;  162.267;  172.708; 2.57312
 229.00;  172.107;  170.117;  181.048; 1.98994
 229.60;  173.427;  173.806;  183.766;-0.37868
 230.20;  199.575;  198.141;  211.512; 1.43427
 230.80;  159.843;  159.033;  172.378; 0.81011
 231.39;  157.771;  156.077;  169.722; 1.69454
 231.99;  175.239;  174.254;  189.251; 0.98536
 232.59;  201.622;  200.302;  217.599; 1.31966
 233.19;  171.906;  170.157;  188.513; 1.74909
 233.79;  183.601;  183.263;  202.434; 0.33773
 234.38;  170.444;  167.956;  190.099; 2.48861
 234.98;  175.837;  173.599;  196.074; 2.23805
 235.58;  179.730;  177.265;  201.586; 2.46525
 236.18;  190.821;  188.653;  212.456; 2.16741
 236.78;  178.263;  176.653;  202.247; 1.61022
 237.37;  190.798;  188.880;  218.441; 1.91845
 237.97;  194.457;  193.095;  224.600; 1.36217
 238.57;  197.486;  194.206;  226.967; 3.27982
 239.17;  165.740;  164.346;  198.792; 1.39387
 239.76;  186.133;  183.664;  220.862; 2.46887
 240.36;  174.866;  172.105;  212.675; 2.76079
 240.96;  202.638;  201.269;  243.349; 1.36930
 241.56;  170.745;  170.013;  211.808; 0.73173
 242.15;  178.325;  175.926;  223.065; 2.39869
 242.75;  196.602;  194.651;  246.418; 1.95060
 243.35;  172.823;  172.579;  226.927; 0.24435
 243.95;  184.874;  183.389;  243.754; 1.48482
 244.54;  198.320;  197.162;  259.178; 1.15788
 245.14;  192.396;  190.255;  258.872; 2.14085
 245.74;  208.871;  208.147;  280.750; 0.72404
 246.34;  181.279;  179.384;  260.989; 1.89527
 246.93;  196.239;  194.540;  283.881; 1.69906
 247.53;  149.927;  150.490;  263.537;-0.56346
 248.13;  190.314;  189.377;  330.762; 0.93769
 248.73;  180.471;  177.307;  312.884; 3.16373
 249.32;  183.600;  182.365;  307.340; 1.23454
 249.92;  172.267;  171.068;  313.021; 1.19843
 250.52;  189.269;  187.482;  364.988; 1.78725
 251.11;  190.682;  188.366;  413.921; 2.31605
 251.71;  205.476;  203.136;  535.383; 2.34049
 252.31;  161.151;  160.999; 1116.602; 0.15150
 252.91;  186.958;  184.060;12306.623; 2.89786
 253.50;  153.433;  152.327;38070.578; 1.10652
 254.10;  194.952;  193.074;33115.004; 1.87753
 254.70;  164.708;  162.164; 7397.543; 2.54404
 255.29;  200.303;  198.845;  779.898; 1.45820
 255.89;  182.879;  182.038;  427.893; 0.84162
 256.49;  165.829;  164.713;  337.986; 1.11587
 257.08;  171.466;  171.252;  312.391; 0.21376
 257.68;  188.889;  185.874;  307.577; 3.01493
 258.28;  185.248;  182.976;  290.710; 2.27202
 258.87;  189.600;  187.683;  281.589; 1.91671
 259.47;  173.615;  174.008;  256.904;-0.39363
 260.07;  182.655;  180.645;  258.984; 2.01029
 260.66;  158.170;  157.355;  230.508; 0.81471
 261.26;  206.754;  206.348;  273.389; 0.40638
 261.86;  198.204;  196.204;  260.153; 1.99999
 262.45;  173.829;  172.167;  231.401; 1.66137
 263.05;  174.482;  172.644;  230.199; 1.83779
 263.65;  175.877;  174.826;  226.449; 1.05110
 264.24;  191.615;  190.153;  241.350; 1.46227
 264.84;  204.604;  202.018;  281.498; 2.58628
 265.44;  181.538;  178.873;  273.867; 2.66574
 266.03;  176.361;  174.292;  231.179; 2.06871
 266.63;  165.218;  164.434;  197.785; 0.78411
 267.23;  182.141;  179.403;  211.605; 2.73801
 267.82;  161.963;  160.119;  187.883; 1.84394
 268.42;  170.043;  168.722;  194.649; 1.32037
 269.01;  170.435;  167.434;  194.558; 3.00110
 269.61;  179.904;  177.503;  204.840; 2.40126
 270.21;  182.627;  181.812;  207.045; 0.81463
 270.80;  200.228;  199.492;  224.414; 0.73658
 271.40;  161.563;  161.147;  183.775; 0.41660
 271.99;  197.995;  196.273;  218.373; 1.72195
 272.59;  156.091;  154.755;  177.199; 1.33630
 273.19;  165.836;  164.093;  186.254; 1.74259
 273.78;  154.282;  153.743;  175.177; 0.53940
 274.38;  167.301;  166.434;  193.021; 0.86701
 274.97;  177.748;  176.672;  212.682; 1.07583
 275.57;  178.140;  175.871;  215.124; 2.26914
 276.17;  150.311;  148.295;  175.473; 2.01606
 276.76;  177.185;  176.866;  200.892; 0.31909
 277.36;  175.607;  173.676;  195.657; 1.93173
 277.95;  179.979;  179.146;  202.104; 0.83337
 278.55;  163.557;  162.300;  183.571; 1.25702
 279.14;  180.989;  178.438;  204.050; 2.55121
 279.74;  178.464;  178.094;  211.006; 0.36967
 280.34;  163.746;  162.363;  207.562; 1.38332
 280.93;  200.843;  198.461;  243.101; 2.38149
 281.53;  159.203;  156.163;  204.471; 3.03938
 282.12;  181.128;  180.150;  242.247; 0.97841
 282.72;  172.921;  171.170;  237.668; 1.75085
 283.31;  180.420;  179.852;  225.194; 0.56868
 283.91;  161.091;  159.820;  189.204; 1.27077
 284.50;  187.861;  187.279;  209.412; 0.58242
 285.10;  198.273;  196.633;  220.160; 1.64029
 285.69;  158.708;  158.080;  181.279; 0.62730
 286.29;  185.474;  182.021;  205.333; 3.45297
 286.89;  174.140;  170.133;  193.509; 4.00654
 287.48;  178.051;  176.205;  198.821; 1.84619
 288.08;  193.875;  193.365;  213.941; 0.51003
 288.67;  175.008;  173.346;  211.533; 1.66258
 289.27;  175.724;  173.528;  238.460; 2.19636
 289.86;  173.059;  172.028;  224.048; 1.03101
 290.46;  157.717;  156.650;  182.953; 1.06676
 291.05;  172.793;  170.962;  190.854; 1.83108
 291.65;  168.225;  166.434;  186.464; 1.79093
 292.24;  193.515;  191.459;  217.061; 2.05614
 292.84;  177.688;  175.456;  198.640; 2.23240
 293.43;  182.341;  181.351;  201.754; 0.99021
 294.03;  180.144;  178.215;  197.677; 1.92905
 294.62;  186.261;  185.189;  205.562; 1.07175
 295.22;  166.101;  165.583;  187.902; 0.51797
 295.81;  181.263;  179.539;  227.659; 1.72404
 296.41;  170.175;  169.223;  618.639; 0.95259
 297.00;  186.028;  184.150;  879.669; 1.87760
 297.60;  174.762;  173.706;  448.744; 1.05568
 298.19;  180.446;  178.614;  234.456; 1.83194
 298.78;  176.385;  174.864;  208.659; 1.52074
 299.38;  163.817;  161.756;  184.146; 2.06158
 299.97;  189.624;  188.514;  207.510; 1.10958
 300.57;  178.538;  176.677;  193.837; 1.86098
 301.16;  135.530;  133.748;  152.734; 1.78195
 301.76;  174.058;  172.015;  237.006; 2.04307
 302.35;  176.041;  173.885;  322.268; 2.15666
 302.95;  193.264;  191.841;  300.113; 1.42368
 303.54;  152.909;  151.624;  188.905; 1.28452
 304.14;  157.772;  156.602;  182.352; 1.16943
 304.73;  190.117;  188.430;  213.586; 1.68770
 305.32;  180.019;  178.778;  200.159; 1.24119
 305.92;  159.423;  158.019;  180.386; 1.40389
 306.51;  155.555;  153.813;  174.896; 1.74179
 307.11;  174.921;  173.442;  194.701; 1.47924
 307.70;  155.507;  153.785;  174.665; 1.72193
 308.29;  156.135;  155.230;  177.264; 0.90477
 308.89;  165.291;  163.670;  185.946; 1.62167
 309.48;  126.336;  124.929;  149.281; 1.40743
 310.08;  165.723;  164.415;  192.005; 1.30766
 310.67;  166.289;  164.152;  194.927; 2.13740
 311.27;  151.287;  150.525;  202.344; 0.76191
 311.86;  157.405;  156.204;  434.649; 1.20135
 312.45;  162.385;  162.050; 1292.883; 0.33455
 313.05;  173.700;  172.450; 2220.983; 1.24956
 313.64;  167.540;  167.082; 1904.856; 0.45745
 314.23;  157.008;  156.245;  905.625; 0.76323
 314.83;  180.972;  180.583;  437.262; 0.38895
 315.42;  151.991;  150.195;  324.042; 1.79614
 316.02;  155.568;  155.471;  288.107; 0.09768
 316.61;  150.902;  148.681;  258.543; 2.22076
 317.20;  165.260;  163.095;  253.209; 2.16495
 317.80;  157.741;  155.435;  232.493; 2.30658
 318.39;  161.389;  159.932;  233.203; 1.45689
 318.98;  191.830;  190.871;  247.328; 0.95938
 319.58;  167.223;  165.811;  216.003; 1.41236
 320.17;  166.236;  165.908;  213.990; 0.32775
 320.76;  167.141;  165.569;  212.286; 1.57161
 321.36;  168.166;  165.360;  202.238; 2.80533
 321.95;  165.404;  163.546;  195.718; 1.85789
 322.55;  183.535;  182.524;  213.062; 1.01081
 323.14;  150.864;  147.977;  181.970; 2.88768
 323.73;  153.289;  151.773;  184.904; 1.51544
 324.33;  173.870;  171.757;  201.519; 2.11291
 324.92;  167.690;  166.605;  192.560; 1.08470
 325.51;  165.249;  163.988;  187.946; 1.26084
 326.10;  160.357;  158.567;  181.914; 1.78985
 326.70;  172.208;  170.823;  193.516; 1.38501
 327.29;  167.124;  165.754;  187.224; 1.36998
 327.88;  163.032;  160.484;  182.818; 2.54773
 328.48;  175.777;  172.900;  198.026; 2.87700
 329.07;  178.752;  176.931;  199.266; 1.82120
 329.66;  169.402;  167.338;  189.404; 2.06369
 330.26;  172.756;  170.315;  192.723; 2.44052
 330.85;  177.687;  175.245;  195.784; 2.44239
 331.44;  173.048;  171.748;  189.246; 1.29959
 332.04;  174.846;  173.970;  189.683; 0.87535
 332.63;  161.989;  160.135;  174.903; 1.85345
 333.22;  174.290;  172.764;  195.090; 1.52587
 333.81;  180.083;  178.451;  235.574; 1.63170
 334.41;  179.095;  176.567;  249.291; 2.52798
 335.00;  190.078;  187.943;  222.102; 2.13467
 335.59;  173.667;  171.635;  182.714; 2.03251
 336.18;  184.931;  183.361;  190.339; 1.57016
 336.78;  163.345;  162.601;  169.251; 0.74377
 337.37;  169.044;  167.347;  174.332; 1.69694
 337.96;  225.435;  223.507;  229.099; 1.92811
 338.55;  196.508;  194.528;  200.760; 1.98025
 339.15;  184.427;  182.290;  187.809; 2.13685
 339.74;  171.494;  170.423;  176.051; 1.07112
 340.33;  168.560;  166.761;  172.264; 1.79851
 340.92;  181.586;  179.833;  185.726; 1.75347
 341.52;  175.201;  174.017;  179.138; 1.18460
 342.11;  172.261;  170.075;  175.982; 2.18589
 342.70;  157.841;  157.067;  162.731; 0.77441
 343.29;  175.721;  174.449;  180.213; 1.27176
 343.89;  162.924;  160.703;  166.492; 2.22054
 344.48;  176.185;  174.727;  181.187; 1.45755
 345.07;  152.712;  151.632;  158.639; 1.08033
 345.66;  182.480;  180.273;  186.801; 2.20647
 346.25;  166.505;  166.511;  171.893;-0.00674
 346.85;  179.817;  177.788;  184.557; 2.02938
 347.44;  157.680;  156.673;  164.301; 1.00695
 348.03;  167.179;  165.808;  173.428; 1.37079
 348.62;  187.011;  185.926;  191.544; 1.08482
 349.21;  163.275;  161.691;  170.085; 1.58364
 349.81;  174.440;  172.419;  180.710; 2.02105
 350.40;  160.928;  159.988;  168.015; 0.93963
 350.99;  156.573;  155.664;  164.370; 0.90871
 351.58;  166.855;  164.716;  175.213; 2.13847
 352.17;  141.402;  141.008;  150.727; 0.39416
 352.77;  166.767;  165.438;  175.698; 1.32964
 353.36;  175.282;  172.920;  184.777; 2.36199
 353.95;  173.720;  173.301;  183.532; 0.41923
 354.54;  155.107;  153.863;  164.695; 1.24444
 355.13;  172.897;  170.783;  185.178; 2.11336
 355.72;  176.429;  174.317;  189.178; 2.11250
 356.32;  164.844;  164.231;  179.394; 0.61266
 356.91;  184.620;  183.800;  198.581; 0.82042
 357.50;  167.535;  166.814;  181.332; 0.72169
 358.09;  161.218;  161.077;  175.948; 0.14152
 358.68;  166.221;  164.655;  182.453; 1.56592
 359.27;  176.360;  175.654;  193.575; 0.70573
 359.86;  183.720;  181.288;  201.175; 2.43189
 360.46;  156.987;  154.076;  174.085; 2.91163
 361.05;  170.441;  168.579;  190.340; 1.86240
 361.64;  165.567;  162.541;  185.086; 3.02668
 362.23;  169.806;  166.555;  194.651; 3.25089
 362.82;  162.752;  160.226;  192.502; 2.52575
 363.41;  166.224;  164.669;  207.875; 1.55441
 364.00;  175.416;  172.156;  353.780; 3.25980
 364.59;  180.687;  178.716; 1486.313; 1.97056
 365.19;  160.124;  158.199; 2522.935; 1.92459
 365.78;  179.181;  179.113; 1660.725; 0.06757
 366.37;  165.913;  164.869;  731.492; 1.04447
 366.96;  166.732;  165.324;  397.552; 1.40787
 367.55;  178.424;  178.115;  244.913; 0.30918
 368.14;  175.580;  173.306;  214.336; 2.27377
 368.73;  183.448;  183.335;  218.072; 0.11301
 369.32;  186.373;  185.203;  217.455; 1.16954
 369.91;  179.720;  179.000;  209.941; 0.71989
 370.50;  188.888;  187.978;  219.302; 0.90984
 371.09;  172.385;  170.219;  202.742; 2.16618
 371.69;  166.295;  165.371;  198.902; 0.92376
 372.28;  161.443;  161.032;  193.164; 0.41144
 372.87;  196.308;  194.495;  229.204; 1.81253
 373.46;  163.963;  162.786;  198.627; 1.17657
 374.05;  184.116;  182.726;  218.578; 1.38979
 374.64;  183.351;  182.429;  220.031; 0.92244
 375.23;  173.940;  173.409;  210.680; 0.53044
 375.82;  192.459;  191.877;  231.757; 0.58161
 376.41;  189.480;  187.002;  227.311; 2.47753
 377.00;  187.471;  186.060;  229.443; 1.41091
 377.59;  179.804;  176.931;  220.777; 2.87267
 378.18;  180.139;  179.365;  222.855; 0.77402
 378.77;  178.673;  177.506;  221.661; 1.16703
 379.36;  168.802;  167.725;  215.856; 1.07688
 379.95;  189.246;  188.814;  236.560; 0.43172
 380.54;  182.925;  180.542;  233.047; 2.38310
 381.13;  196.482;  194.423;  245.947; 2.05954
 381.72;  163.533;  162.089;  217.145; 1.44368
 382.31;  197.008;  195.072;  250.810; 1.93569
 382.90;  178.750;  178.791;  235.621;-0.04136
 383.49;  224.782;  223.253;  281.132; 1.52914
 384.08;  166.913;  166.195;  226.846; 0.71756
 384.67;  192.162;  191.906;  252.682; 0.25621
 385.26;  187.090;  185.799;  250.489; 1.29122
 385.85;  171.839;  169.888;  233.966; 1.95126
 386.44;  185.652;  183.949;  250.247; 1.70330
 387.03;  194.277;  194.145;  264.478; 0.13128
 387.62;  161.025;  158.870;  228.198; 2.15451
 388.21;  194.236;  192.293;  263.020; 1.94311
 388.80;  175.128;  174.378;  246.997; 0.74983
 389.39;  180.092;  178.567;  253.348; 1.52497
 389.98;  179.536;  177.961;  255.753; 1.57490
 390.57;  176.873;  175.013;  255.437; 1.85983
 391.16;  184.050;  183.196;  261.714; 0.85386
 391.75;  193.620;  192.996;  269.716; 0.62467
 392.34;  193.842;  193.226;  270.151; 0.61581
 392.93;  190.478;  188.718;  268.909; 1.76025
 393.52;  164.203;  163.534;  245.097; 0.66959
 394.11;  168.788;  167.674;  250.044; 1.11389
 394.70;  207.478;  207.232;  289.266; 0.24615
 395.29;  188.220;  187.369;  271.052; 0.85065
 395.88;  174.864;  174.055;  257.652; 0.80879
 396.47;  191.928;  190.842;  273.788; 1.08626
 397.05;  178.248;  176.117;  258.016; 2.13122
 397.64;  189.762;  187.679;  272.155; 2.08282
 398.23;  181.761;  180.032;  265.215; 1.72907
 398.82;  181.900;  181.963;  265.767;-0.06293
 399.41;  172.945;  170.240;  255.098; 2.70540
 400.00;  168.933;  168.286;  252.393; 0.64678
 400.59;  189.083;  189.395;  273.690;-0.31222
 401.18;  184.501;  182.974;  269.091; 1.52679
 401.77;  177.670;  176.364;  262.585; 1.30648
 402.36;  191.669;  188.854;  281.319; 2.81532
 402.95;  174.842;  174.099;  273.673; 0.74306
 403.53;  191.108;  190.108;  388.007; 1.00050
 404.12;  177.910;  175.734; 1465.115; 2.17674
 404.71;  175.415;  173.658; 2583.144; 1.75631
 405.30;  156.498;  153.799; 1466.161; 2.69885
 405.89;  171.488;  169.976;  421.434; 1.51164
 406.48;  192.340;  190.485;  292.922; 1.85488
 407.07;  163.582;  161.832;  287.548; 1.74990
 407.66;  187.639;  186.426;  386.657; 1.21284
 408.24;  187.575;  185.980;  354.475; 1.59532
 408.83;  190.124;  188.277;  276.672; 1.84660
 409.42;  165.339;  163.692;  233.595; 1.64695
 410.01;  180.087;  179.442;  246.646; 0.64541
 410.60;  190.757;  190.751;  254.574; 0.00591
 411.19;  161.521;  158.964;  222.268; 2.55724
 411.78;  163.578;  159.580;  221.798; 3.99768
 412.36;  167.003;  166.294;  225.619; 0.70912
 412.95;  175.585;  174.622;  232.970; 0.96347
 413.54;  197.822;  196.434;  253.428; 1.38807
 414.13;  189.908;  188.494;  245.348; 1.41459
 414.72;  172.281;  170.550;  226.540; 1.73030
 415.31;  173.216;  172.091;  228.778; 1.12497
 415.89;  156.544;  154.371;  208.684; 2.17350
 416.48;  174.132;  172.903;  225.226; 1.22901
 417.07;  165.748;  163.674;  214.352; 2.07392
 417.66;  194.597;  193.063;  243.116; 1.53413
 418.25;  180.921;  179.507;  226.683; 1.41356
 418.83;  176.612;  174.184;  222.017; 2.42863
 419.42;  181.169;  178.844;  226.599; 2.32498
 420.01;  182.357;  182.921;  228.959;-0.56374
 420.60;  182.825;  179.992;  225.851; 2.83308
 421.19;  204.777;  202.697;  246.419; 2.08021
 421.77;  161.499;  159.119;  202.087; 2.37970
 422.36;  190.308;  190.120;  230.957; 0.18867
 422.95;  179.768;  177.825;  218.066; 1.94373
 423.54;  197.587;  196.331;  236.024; 1.25623
 424.12;  187.278;  186.228;  225.095; 1.05023
 424.71;  188.783;  186.793;  224.132; 1.98979
 425.30;  194.876;  191.971;  231.290; 2.90520
 425.89;  192.838;  191.839;  228.544; 0.99934
 426.48;  185.626;  182.641;  220.262; 2.98530
 427.06;  179.045;  176.712;  212.383; 2.33254
 427.65;  192.314;  190.214;  225.779; 2.10000
 428.24;  172.043;  170.157;  202.939; 1.88608
 428.83;  181.665;  179.758;  213.653; 1.90725
 429.41;  192.905;  191.093;  224.759; 1.81187
 430.00;  180.958;  177.556;  211.652; 3.40170
 430.59;  213.794;  210.549;  246.183; 3.24522
 431.17;  196.377;  195.419;  229.574; 0.95834
 431.76;  197.981;  194.669;  230.916; 3.31187
 432.35;  206.271;  203.964;  241.614; 2.30739
 432.94;  201.406;  199.092;  244.729; 2.31428
 433.52;  200.770;  197.763;  258.083; 3.00671
 434.11;  205.605;  204.189;  298.172; 1.41642
 434.70;  196.292;  193.774;  485.671; 2.51788
 435.29;  210.591;  208.933; 2805.055; 1.65768
 435.87;  205.049;  202.933; 5150.592; 2.11566
 436.46;  208.867;  206.346; 2722.762; 2.52030
 437.05;  181.929;  179.373;  540.545; 2.55529
 437.63;  199.556;  197.695;  274.666; 1.86118
 438.22;  203.844;  200.998;  248.964; 2.84528
 438.81;  216.702;  213.821;  253.576; 2.88094
 439.39;  189.841;  186.400;  219.764; 3.44114
 439.98;  205.428;  202.183;  232.521; 3.24469
 440.57;  201.696;  197.256;  225.617; 4.44034
 441.15;  201.162;  193.395;  219.055; 7.76684
 441.74;  213.462;  199.184;  220.966;14.27753
 442.33;  230.390;  206.115;  227.628;24.27545
 442.91;  238.912;  200.382;  222.203;38.52951
 443.50;  242.223;  192.745;  212.909;49.47803
 444.09;  241.197;  182.183;  202.260;59.01403
 444.67;  278.510;  216.214;  236.318;62.29544
 445.26;  255.593;  195.304;  213.821;60.28921
 445.85;  266.652;  211.454;  229.093;55.19803
 446.43;  247.783;  194.202;  213.253;53.58090
 447.02;  240.935;  195.692;  213.971;45.24257
 447.61;  211.545;  176.504;  193.601;35.04135
 448.19;  225.876;  202.091;  218.236;23.78559
 448.78;  207.605;  192.709;  208.027;14.89594
 449.36;  204.833;  196.322;  212.489; 8.51084
 449.95;  194.757;  189.809;  205.296; 4.94869
 450.54;  189.463;  186.291;  202.068; 3.17154
 451.12;  212.199;  209.062;  224.440; 3.13701
 451.71;  177.081;  174.470;  190.035; 2.61072
 452.30;  202.881;  200.360;  214.755; 2.52080
 452.88;  192.469;  189.679;  204.263; 2.78936
 453.47;  176.342;  173.936;  188.234; 2.40544
 454.05;  184.468;  183.852;  198.324; 0.61615
 454.64;  197.294;  195.260;  209.186; 2.03366
 455.22;  211.927;  209.396;  222.695; 2.53147
 455.81;  176.013;  173.967;  186.806; 2.04631
 456.40;  212.229;  210.083;  221.415; 2.14579
 456.98;  185.453;  183.685;  196.557; 1.76865
 457.57;  204.414;  201.147;  214.096; 3.26720
 458.15;  211.014;  207.769;  220.194; 3.24482
 458.74;  195.846;  195.236;  205.667; 0.61002
 459.33;  201.560;  200.345;  211.567; 1.21507
 459.91;  202.458;  199.537;  209.606; 2.92042
 460.50;  201.592;  199.927;  210.124; 1.66434
 461.08;  193.118;  191.316;  201.549; 1.80180
 461.67;  195.022;  193.380;  203.915; 1.64257
 462.25;  199.758;  198.471;  208.184; 1.28655
 462.84;  168.953;  168.095;  177.443; 0.85815
 463.42;  188.434;  186.336;  197.335; 2.09782
 464.01;  191.125;  187.394;  200.154; 3.73062
 464.59;  202.698;  199.975;  209.773; 2.72259
 465.18;  190.303;  187.276;  196.631; 3.02691
 465.76;  194.639;  192.561;  202.098; 2.07757
 466.35;  193.974;  192.762;  202.134; 1.21197
 466.94;  204.633;  202.229;  211.128; 2.40415
 467.52;  213.314;  211.881;  220.402; 1.43312
 468.11;  179.645;  177.336;  185.451; 2.30893
 468.69;  173.195;  170.165;  178.777; 3.03001
 469.28;  163.284;  161.175;  169.570; 2.10826
 469.86;  199.568;  197.681;  204.795; 1.88672
 470.45;  192.356;  191.272;  198.769; 1.08362
 471.03;  173.931;  172.248;  179.928; 1.68348
 471.62;  185.566;  183.444;  189.847; 2.12180
 472.20;  189.244;  186.086;  194.726; 3.15824
 472.79;  224.948;  222.892;  228.835; 2.05612
 473.37;  188.971;  186.459;  192.908; 2.51156
 473.95;  186.590;  183.877;  192.703; 2.71241
 474.54;  147.415;  145.957;  152.162; 1.45819
 475.12;  212.729;  211.149;  218.210; 1.58058
 475.71;  194.600;  192.610;  199.441; 1.98989
 476.29;  199.739;  196.363;  203.200; 3.37673
 476.88;  174.022;  172.972;  178.540; 1.05015
 477.46;  175.811;  174.791;  179.356; 1.02054
 478.05;  182.130;  180.951;  186.478; 1.17913
 478.63;  186.469;  185.430;  191.034; 1.03855
 479.22;  167.256;  166.175;  170.278; 1.08113
 479.80;  192.510;  189.907;  195.363; 2.60312
 480.38;  187.475;  185.840;  191.085; 1.63546
 480.97;  171.470;  169.570;  174.897; 1.90070
 481.55;  181.937;  180.721;  186.205; 1.21609
 482.14;  204.900;  202.878;  207.401; 2.02193
 482.72;  177.934;  176.124;  182.124; 1.81025
 483.31;  175.325;  174.403;  177.897; 0.92178
 483.89;  179.762;  178.503;  182.403; 1.25930
 484.47;  180.220;  178.466;  182.354; 1.75377
 485.06;  168.833;  168.540;  172.672; 0.29320
 485.64;  193.914;  192.992;  195.664; 0.92256
 486.23;  198.132;  197.050;  200.398; 1.08190
 486.81;  191.980;  189.918;  194.241; 2.06170
 487.39;  161.786;  160.088;  164.354; 1.69774
 487.98;  174.426;  172.594;  176.507; 1.83245
 488.56;  204.062;  201.878;  205.349; 2.18394
 489.15;  173.592;  170.912;  176.203; 2.68027
 489.73;  177.361;  175.128;  179.606; 2.23325
 490.31;  176.261;  174.835;  179.772; 1.42556
 490.90;  177.305;  175.154;  182.159; 2.15096
 491.48;  180.716;  178.744;  192.437; 1.97222
 492.06;  193.681;  192.297;  201.679; 1.38379
 492.65;  165.449;  163.759;  168.469; 1.69028
 493.23;  153.692;  151.642;  155.351; 2.04993
 493.82;  187.563;  185.341;  188.929; 2.22242
 494.40;  153.461;  151.904;  154.592; 1.55735
 494.98;  172.205;  170.126;  173.304; 2.07879
 495.57;  151.990;  151.372;  154.804; 0.61823
 496.15;  149.813;  147.929;  152.224; 1.88396
 496.73;  164.925;  162.645;  165.567; 2.28047
 497.32;  185.330;  183.062;  185.987; 2.26832
 497.90;  182.888;  182.221;  184.261; 0.66730
 498.48;  161.370;  158.959;  161.229; 2.41075
 499.07;  166.258;  164.865;  167.574; 1.39236
 499.65;  185.064;  182.334;  185.883; 2.72979
 500.23;  150.418;  148.420;  150.126; 1.99795
 500.82;  161.910;  161.391;  163.825; 0.51859
 501.40;  164.237;  163.786;  166.053; 0.45124
 501.98;  178.213;  176.743;  178.435; 1.47043
 502.56;  191.505;  190.659;  192.690; 0.84571
 503.15;  191.741;  189.957;  191.639; 1.78376
 503.73;  174.205;  174.199;  175.410; 0.00528
 504.31;  177.893;  176.273;  178.659; 1.61990
 504.90;  186.222;  183.849;  186.738; 2.37275
 505.48;  198.839;  197.861;  199.199; 0.97811
 506.06;  183.401;  182.214;  184.710; 1.18676
 506.64;  169.762;  167.755;  170.026; 2.00740
 507.23;  176.197;  174.493;  176.401; 1.70336
 507.81;  186.980;  185.624;  188.977; 1.35552
 508.39;  175.378;  174.552;  176.174; 0.82647
 508.97;  184.590;  182.149;  185.047; 2.44077
 509.56;  194.289;  193.061;  194.375; 1.22825
 510.14;  160.467;  158.441;  161.241; 2.02615
 510.72;  177.316;  176.314;  177.478; 1.00213
 511.30;  188.041;  185.663;  186.041; 2.37819
 511.89;  185.012;  183.962;  185.565; 1.04936
 512.47;  180.773;  178.887;  181.031; 1.88572
 513.05;  176.966;  174.809;  177.585; 2.15690
 513.63;  177.399;  175.330;  177.868; 2.06890
 514.22;  188.223;  186.419;  189.266; 1.80434
 514.80;  188.229;  187.149;  188.139; 1.07983
 515.38;  177.165;  176.359;  179.039; 0.80526
 515.96;  200.091;  198.646;  200.259; 1.44557
 516.55;  172.933;  171.662;  172.391; 1.27144
 517.13;  183.609;  181.301;  186.021; 2.30788
 517.71;  168.454;  167.765;  169.247; 0.68898
 518.29;  168.956;  166.993;  170.914; 1.96365
 518.87;  181.112;  180.043;  182.674; 1.06949
 519.46;  173.525;  171.588;  174.753; 1.93726
 520.04;  176.282;  174.477;  177.625; 1.80504
 520.62;  165.273;  165.577;  166.467;-0.30432
 521.20;  162.077;  161.544;  162.686; 0.53247
 521.78;  178.711;  177.077;  180.553; 1.63335
 522.36;  174.244;  173.507;  175.982; 0.73713
 522.95;  176.912;  173.525;  177.197; 3.38671
 523.53;  162.144;  160.559;  164.834; 1.58548
 524.11;  175.995;  172.830;  176.760; 3.16523
 524.69;  170.147;  168.486;  170.408; 1.66141
 525.27;  172.194;  170.764;  173.546; 1.43031
 525.85;  181.430;  179.811;  182.985; 1.61876
 526.44;  182.263;  180.926;  182.487; 1.33676
 527.02;  190.626;  190.051;  192.145; 0.57494
 527.60;  183.565;  182.817;  184.817; 0.74743
 528.18;  167.779;  164.163;  168.352; 3.61562
 528.76;  196.653;  195.064;  197.754; 1.58840
 529.34;  181.227;  178.814;  182.904; 2.41292
 529.92;  197.822;  195.851;  199.070; 1.97117
 530.51;  188.107;  185.190;  189.082; 2.91690
 531.09;  178.924;  177.524;  180.559; 1.40012
 531.67;  172.795;  171.716;  176.286; 1.07888
 532.25;  195.231;  193.898;  198.863; 1.33257
 532.83;  195.288;  193.453;  200.968; 1.83450
 533.41;  171.449;  170.702;  175.342; 0.74700
 533.99;  196.122;  194.779;  200.241; 1.34284
 534.57;  215.623;  214.377;  219.337; 1.24648
 535.15;  176.733;  175.647;  181.714; 1.08638
 535.74;  172.032;  169.958;  177.698; 2.07330
 536.32;  177.860;  176.294;  183.533; 1.56616
 536.90;  170.009;  168.087;  173.158; 1.92198
 537.48;  183.814;  181.900;  186.764; 1.91329
 538.06;  201.388;  199.959;  204.852; 1.42887
 538.64;  187.676;  185.566;  193.302; 2.10946
 539.22;  180.425;  177.351;  184.206; 3.07454
 539.80;  184.967;  183.048;  190.142; 1.91915
 540.38;  199.469;  198.265;  205.750; 1.20392
 540.96;  169.134;  167.682;  176.155; 1.45179
 541.54;  176.988;  173.804;  183.672; 3.18377
 542.12;  218.806;  216.864;  228.946; 1.94203
 542.70;  165.406;  161.903;  178.319; 3.50334
 543.28;  182.829;  182.019;  202.682; 0.80949
 543.86;  177.394;  174.277;  204.103; 3.11678
 544.44;  228.050;  226.892;  278.849; 1.15841
 545.02;  196.369;  194.464;  518.343; 1.90529
 545.61;  185.085;  183.184; 3429.565; 1.90095
 546.19;  189.373;  186.751; 4874.079; 2.62196
 546.77;  182.622;  181.234; 1764.281; 1.38824
 547.35;  215.058;  213.513;  398.729; 1.54497
 547.93;  190.751;  190.275;  238.837; 0.47645
 548.51;  194.127;  192.444;  217.970; 1.68325
 549.09;  202.061;  200.520;  218.477; 1.54083
 549.67;  200.944;  200.022;  211.654; 0.92197
 550.25;  182.237;  180.811;  191.700; 1.42570
 550.83;  205.884;  205.418;  213.583; 0.46597
 551.41;  193.368;  192.111;  198.861; 1.25737
 551.99;  192.268;  191.188;  196.932; 1.08023
 552.57;  193.062;  191.228;  197.915; 1.83345
 553.15;  211.487;  209.117;  214.893; 2.37030
 553.73;  171.662;  170.078;  174.930; 1.58375
 554.30;  203.373;  201.957;  206.191; 1.41618
 554.88;  189.426;  188.356;  191.836; 1.07003
 555.46;  198.377;  195.482;  201.328; 2.89555
 556.04;  190.934;  189.068;  193.265; 1.86589
 556.62;  213.159;  211.218;  215.762; 1.94066
 557.20;  176.253;  175.190;  178.369; 1.06303
 557.78;  199.621;  197.203;  201.259; 2.41846
 558.36;  212.927;  211.720;  213.174; 1.20654
 558.94;  210.997;  208.744;  212.481; 2.25229
 559.52;  183.859;  182.546;  185.274; 1.31281
 560.10;  199.874;  197.712;  200.758; 2.16135
 560.68;  197.820;  197.598;  200.698; 0.22154
 561.26;  219.021;  216.549;  221.469; 2.47175
 561.84;  178.038;  176.186;  179.169; 1.85264
 562.42;  192.575;  190.872;  194.921; 1.70323
 563.00;  199.274;  196.236;  200.683; 3.03788
 563.58;  194.764;  193.715;  197.730; 1.04842
 564.15;  193.757;  191.132;  196.425; 2.62500
 564.73;  201.537;  199.274;  203.546; 2.26241
 565.31;  212.114;  210.517;  214.694; 1.59689
 565.89;  177.245;  176.152;  180.168; 1.09301
 566.47;  188.111;  186.376;  190.334; 1.73535
 567.05;  207.305;  207.090;  209.801; 0.21483
 567.63;  191.691;  190.231;  193.745; 1.45966
 568.21;  184.182;  184.467;  188.234;-0.28503
 568.79;  210.245;  207.780;  211.859; 2.46523
 569.36;  232.647;  231.222;  236.033; 1.42490
 569.94;  186.803;  185.240;  190.086; 1.56337
 570.52;  206.282;  204.336;  208.876; 1.94606
 571.10;  154.386;  153.109;  157.098; 1.27652
 571.68;  197.951;  196.182;  199.348; 1.76927
 572.26;  203.972;  202.530;  206.805; 1.44199
 572.84;  208.599;  206.460;  213.302; 2.13947
 573.41;  186.585;  186.632;  191.510;-0.04674
 573.99;  230.165;  227.859;  234.484; 2.30589
 574.57;  191.905;  191.082;  198.005; 0.82291
 575.15;  224.860;  223.101;  233.762; 1.75919
 575.73;  208.151;  206.807;  238.659; 1.34378
 576.31;  206.055;  203.764;  581.907; 2.29091
 576.88;  180.521;  180.000;  993.686; 0.52056
 577.46;  189.841;  187.217;  632.249; 2.62368
 578.04;  185.016;  182.140;  314.338; 2.87632
 578.62;  183.276;  182.141;  838.586; 1.13574
 579.20;  189.623;  187.289; 1006.280; 2.33450
 579.78;  197.135;  195.108;  438.584; 2.02674
 580.35;  196.816;  194.661;  224.094; 2.15520
 580.93;  185.398;  183.319;  193.932; 2.07933
 581.51;  199.004;  197.904;  203.406; 1.10000
 582.09;  179.671;  177.021;  181.770; 2.64974
 582.67;  180.454;  178.717;  181.880; 1.73658
 583.24;  183.143;  181.913;  185.282; 1.23025
 583.82;  186.612;  184.170;  188.714; 2.44222
 584.40;  184.000;  183.018;  186.158; 0.98239
 584.98;  182.189;  180.437;  183.929; 1.75164
 585.55;  195.356;  191.740;  197.391; 3.61642
 586.13;  169.884;  168.560;  170.347; 1.32388
 586.71;  191.284;  189.825;  193.534; 1.45868
 587.29;  185.355;  183.159;  185.393; 2.19618
 587.86;  187.162;  185.415;  189.128; 1.74686
 588.44;  149.708;  148.676;  151.278; 1.03223
 589.02;  201.982;  199.453;  202.846; 2.52946
 589.60;  180.362;  178.239;  180.686; 2.12270
 590.17;  192.863;  190.163;  192.297; 2.69992
 590.75;  168.489;  167.953;  169.301; 0.53556
 591.33;  169.291;  167.885;  171.119; 1.40586
 591.91;  179.631;  177.390;  180.134; 2.24106
 592.48;  173.972;  171.850;  174.727; 2.12225
 593.06;  190.570;  189.411;  191.277; 1.15923
 593.64;  185.385;  184.429;  186.123; 0.95625
 594.21;  171.459;  170.349;  171.966; 1.10983
 594.79;  184.779;  182.273;  184.253; 2.50648
 595.37;  186.991;  185.500;  186.634; 1.49103
 595.95;  168.896;  167.131;  169.210; 1.76467
 596.52;  174.324;  173.512;  174.385; 0.81184
 597.10;  180.603;  180.359;  181.543; 0.24418
 597.68;  167.127;  164.216;  167.048; 2.91142
 598.25;  190.884;  188.818;  191.102; 2.06585
 598.83;  167.004;  166.330;  168.230; 0.67399
 599.41;  181.783;  182.100;  181.930;-0.31716
 599.98;  207.449;  206.795;  207.470; 0.65393
 600.56;  196.630;  194.319;  196.510; 2.31053
 601.14;  181.936;  181.172;  182.296; 0.76378
 601.71;  184.423;  183.589;  185.581; 0.83436
 602.29;  171.090;  169.419;  171.919; 1.67160
 602.87;  194.992;  194.769;  196.942; 0.22306
 603.44;  189.101;  187.254;  189.970; 1.84755
 604.02;  182.743;  180.861;  183.106; 1.88174
 604.60;  201.874;  200.630;  201.173; 1.24469
 605.17;  208.315;  207.202;  208.291; 1.11302
 605.75;  198.466;  196.203;  198.867; 2.26316
 606.33;  190.421;  188.326;  190.642; 2.09550
 606.90;  210.970;  208.154;  211.394; 2.81626
 607.48;  199.160;  197.860;  199.325; 1.29987
 608.05;  177.536;  176.407;  178.524; 1.12851
 608.63;  185.634;  183.413;  186.371; 2.22041
 609.21;  175.589;  175.125;  176.448; 0.46400
 609.78;  205.132;  202.864;  205.182; 2.26862
 610.36;  193.478;  192.154;  191.741; 1.32370
 610.93;  196.797;  195.185;  196.171; 1.61201
 611.51;  179.579;  177.196;  179.469; 2.38279
 612.09;  207.162;  205.436;  207.395; 1.72576
 612.66;  189.605;  188.704;  190.107; 0.90065
 613.24;  203.127;  201.654;  203.003; 1.47361
 613.81;  208.211;  205.772;  206.200; 2.43861
 614.39;  202.928;  200.987;  203.399; 1.94139
 614.96;  218.500;  217.772;  217.412; 0.72833
 615.54;  202.135;  200.136;  201.843; 1.99936
 616.12;  211.690;  208.747;  209.965; 2.94283
 616.69;  168.581;  167.104;  169.197; 1.47702
 617.27;  197.317;  195.313;  196.719; 2.00473
 617.84;  179.457;  176.420;  178.833; 3.03677
 618.42;  213.356;  212.021;  211.207; 1.33448
 618.99;  197.055;  196.354;  195.870; 0.70065
 619.57;  215.804;  213.618;  214.600; 2.18615
 620.14;  206.056;  203.450;  204.552; 2.60592
 620.72;  185.173;  183.029;  183.325; 2.14342
 621.30;  206.925;  206.396;  206.934; 0.52876
 621.87;  214.771;  214.650;  212.652; 0.12106
 622.45;  207.018;  204.469;  204.167; 2.54933
 623.02;  177.462;  177.509;  178.127;-0.04744
 623.60;  189.043;  186.830;  189.356; 2.21310
 624.17;  195.632;  193.902;  194.886; 1.72965
 624.75;  206.956;  205.391;  205.327; 1.56538
 625.32;  193.100;  191.394;  192.308; 1.70561
 625.90;  198.459;  197.282;  198.133; 1.17701
 626.47;  209.497;  208.475;  210.485; 1.02220
 627.05;  181.136;  180.684;  179.759; 0.45212
 627.62;  198.536;  196.974;  196.459; 1.56231
 628.20;  219.100;  218.835;  218.249; 0.26460
 628.77;  212.689;  212.549;  211.877; 0.14038
 629.34;  232.701;  230.323;  231.819; 2.37759
 629.92;  188.442;  187.731;  187.490; 0.71094
 630.49;  214.378;  212.216;  213.266; 2.16197
 631.07;  189.460;  188.351;  188.294; 1.10922
 631.64;  188.729;  186.963;  187.824; 1.76612
 632.22;  230.104;  230.101;  230.912; 0.00286
 632.79;  206.685;  204.962;  206.039; 1.72348
 633.37;  213.765;  212.244;  212.526; 1.52126
 633.94;  208.350;  206.734;  206.488; 1.61599
 634.52;  202.513;  200.579;  199.758; 1.93331
 635.09;  216.718;  214.711;  215.253; 2.00735
 635.66;  181.955;  180.185;  181.904; 1.76977
 636.24;  196.364;  194.244;  196.282; 2.11986
 636.81;  236.735;  235.976;  236.037; 0.75931
 637.39;  220.210;  219.078;  219.425; 1.13207
 637.96;  215.977;  214.702;  214.710; 1.27557
 638.54;  215.450;  213.006;  214.657; 2.44402
 639.11;  192.897;  190.482;  192.193; 2.41470
 639.68;  218.847;  216.255;  218.132; 2.59171
 640.26;  202.280;  199.975;  200.830; 2.30502
 640.83;  202.920;  201.630;  202.731; 1.29005
 641.41;  197.541;  195.500;  195.288; 2.04108
 641.98;  203.401;  201.296;  202.609; 2.10511
 642.55;  181.491;  181.592;  181.128;-0.10085
 643.13;  199.694;  197.802;  198.066; 1.89218
 643.70;  218.739;  215.956;  217.215; 2.78321
 644.27;  204.888;  203.148;  203.618; 1.74024
 644.85;  194.960;  193.782;  194.159; 1.17827
 645.42;  201.159;  199.487;  199.911; 1.67230
 645.99;  191.863;  189.177;  190.061; 2.68633
 646.57;  197.404;  195.252;  196.463; 2.15236
 647.14;  202.807;  201.563;  201.200; 1.24439
 647.72;  181.206;  179.554;  180.416; 1.65243
 648.29;  193.469;  191.996;  192.608; 1.47346
 648.86;  218.808;  216.634;  216.710; 2.17449
 649.44;  185.405;  183.829;  183.041; 1.57552
 650.01;  195.206;  193.153;  193.457; 2.05255
 650.58;  204.064;  201.539;  202.430; 2.52458
 651.16;  202.991;  200.184;  200.440; 2.80661
 651.73;  189.733;  188.469;  187.736; 1.26364
 652.30;  205.470;  204.414;  207.431; 1.05568
 652.87;  192.325;  190.593;  192.315; 1.73171
 653.45;  213.813;  212.123;  212.966; 1.68974
 654.02;  187.645;  185.976;  187.624; 1.66877
 654.59;  198.446;  196.795;  196.423; 1.65080
 655.17;  203.036;  201.212;  201.261; 1.82383
 655.74;  187.536;  185.868;  184.871; 1.66786
 656.31;  199.619;  197.586;  197.131; 2.03289
 656.89;  201.174;  199.322;  199.572; 1.85193
 657.46;  206.621;  205.252;  205.138; 1.36896
 658.03;  212.997;  211.349;  212.823; 1.64799
 658.60;  195.480;  193.805;  194.048; 1.67502
 659.18;  210.971;  208.100;  210.082; 2.87105
 659.75;  194.545;  193.374;  194.466; 1.17108
 660.32;  213.746;  212.133;  212.587; 1.61311
 660.89;  194.866;  192.428;  193.109; 2.43814
 661.47;  213.492;  212.311;  212.436; 1.18118
 662.04;  214.144;  212.624;  212.492; 1.52021
 662.61;  195.696;  193.858;  195.400; 1.83824
 663.18;  203.480;  201.294;  202.315; 2.18527
 663.76;  184.000;  182.413;  181.848; 1.58630
 664.33;  209.359;  207.452;  208.590; 1.90633
 664.90;  204.884;  202.553;  203.257; 2.33036
 665.47;  198.944;  197.111;  197.715; 1.83239
 666.05;  190.536;  189.982;  190.679; 0.55343
 666.62;  226.303;  224.362;  225.637; 1.94046
 667.19;  190.513;  189.526;  192.394; 0.98649
 667.76;  186.275;  185.401;  189.455; 0.87352
 668.33;  189.019;  187.268;  191.776; 1.75055
 668.91;  181.425;  180.791;  180.984; 0.63358
 669.48;  196.372;  194.144;  195.022; 2.22761
 670.05;  183.133;  180.894;  181.436; 2.23864
 670.62;  203.772;  200.281;  200.111; 3.49068
 671.19;  199.696;  198.511;  199.468; 1.18471
 671.76;  205.688;  203.866;  204.944; 1.82174
 672.34;  187.914;  186.975;  187.849; 0.93877
 672.91;  196.462;  195.368;  196.127; 1.09380
 673.48;  188.051;  186.802;  188.041; 1.24883
 674.05;  211.781;  209.573;  210.493; 2.20786
 674.62;  207.666;  207.087;  207.026; 0.57889
 675.19;  200.062;  197.948;  199.583; 2.11393
 675.77;  203.535;  201.447;  203.236; 2.08796
 676.34;  177.367;  175.769;  176.251; 1.59799
 676.91;  193.732;  191.238;  192.447; 2.49402
 677.48;  196.860;  196.391;  196.000; 0.46905
 678.05;  194.118;  192.746;  194.424; 1.37208
 678.62;  205.711;  204.736;  206.241; 0.97511
 679.19;  199.389;  198.563;  199.488; 0.82614
 679.77;  193.971;  190.283;  191.219; 3.68818
 680.34;  161.863;  160.541;  160.329; 1.32221
 680.91;  191.094;  188.648;  189.018; 2.44624
 681.48;  192.922;  191.487;  192.089; 1.43527
 682.05;  198.953;  197.339;  198.306; 1.61430
 682.62;  168.856;  168.150;  167.647; 0.70633
 683.19;  189.037;  185.438;  187.455; 3.59936
 683.76;  197.398;  195.381;  195.830; 2.01739
 684.33;  199.343;  197.338;  199.173; 2.00543
 684.90;  179.200;  176.698;  176.952; 2.50246
 685.48;  180.016;  178.017;  180.005; 1.99949
 686.05;  177.839;  175.510;  177.615; 2.32952
 686.62;  197.789;  194.606;  197.183; 3.18355
 687.19;  177.200;  174.969;  176.679; 2.23158
 687.76;  187.693;  185.914;  187.707; 1.77961
 688.33;  190.864;  189.154;  190.216; 1.71064
 688.90;  187.745;  186.846;  187.084; 0.89967
 689.47;  150.654;  148.416;  148.484; 2.23871
 690.04;  175.171;  174.738;  177.908; 0.43374
 690.61;  183.668;  182.567;  191.835; 1.10077
 691.18;  167.904;  166.696;  172.036; 1.20780
 691.75;  209.956;  208.024;  209.598; 1.93183
 692.32;  191.762;  189.873;  191.508; 1.88886
 692.89;  210.295;  207.457;  209.013; 2.83789
 693.46;  192.888;  191.251;  194.434; 1.63692
 694.03;  185.730;  184.158;  185.955; 1.57196
 694.60;  195.737;  195.104;  198.362; 0.63299
 695.17;  192.265;  188.694;  198.056; 3.57102
 695.74;  177.684;  176.725;  295.952; 0.95905
 696.31;  186.396;  184.744;  526.357; 1.65208
 696.88;  195.462;  194.622;  436.680; 0.84011
 697.45;  179.220;  177.704;  217.769; 1.51614
 698.02;  164.325;  163.792;  171.529; 0.53317
 698.59;  166.715;  165.358;  171.783; 1.35721
 699.16;  172.876;  171.238;  173.378; 1.63824
 699.73;  186.545;  184.024;  185.243; 2.52127
 700.30;  174.463;  172.336;  173.389; 2.12730
 700.87;  192.738;  191.384;  192.910; 1.35433
 701.44;  192.344;  189.353;  190.847; 2.99136
 702.01;  185.648;  183.724;  185.005; 1.92439
 702.58;  207.366;  206.278;  206.841; 1.08842
 703.15;  171.575;  170.817;  172.191; 0.75846
 703.72;  194.014;  192.032;  192.738; 1.98249
 704.29;  167.251;  165.421;  167.346; 1.82952
 704.86;  198.401;  197.423;  199.260; 0.97755
 705.43;  190.826;  189.620;  191.919; 1.20558
 706.00;  186.265;  185.232;  222.417; 1.03261
 706.57;  180.701;  179.068;  262.230; 1.63264
 707.14;  175.311;  173.284;  221.456; 2.02667
 707.70;  211.428;  210.068;  218.764; 1.35971
 708.27;  179.465;  178.088;  179.997; 1.37674
 708.84;  178.750;  176.225;  178.009; 2.52477
 709.41;  160.494;  159.275;  159.808; 1.21880
 709.98;  205.575;  203.382;  204.521; 2.19283
 710.55;  181.150;  178.573;  181.279; 2.57686
 711.12;  200.800;  197.937;  198.254; 2.86289
 711.69;  195.541;  194.577;  194.719; 0.96392
 712.26;  195.375;  194.317;  194.505; 1.05796
 712.83;  211.299;  209.515;  210.775; 1.78399
 713.39;  195.489;  194.495;  195.453; 0.99402
 713.96;  207.468;  205.268;  212.738; 2.20005
 714.53;  193.932;  192.113;  206.613; 1.81908
 715.10;  193.949;  192.089;  202.143; 1.86011
 715.67;  175.050;  173.571;  175.208; 1.47914
 716.24;  194.603;  193.501;  193.437; 1.10217
 716.81;  213.160;  211.803;  211.046; 1.35721
 717.37;  196.383;  194.800;  195.090; 1.58324
 717.94;  202.898;  201.338;  202.676; 1.55927
 718.51;  203.498;  202.490;  203.290; 1.00730
 719.08;  186.878;  184.744;  185.101; 2.13333
 719.65;  212.893;  211.737;  211.135; 1.15536
 720.22;  205.923;  206.163;  206.097;-0.24061
 720.78;  200.538;  199.915;  198.790; 0.62242
 721.35;  187.397;  185.004;  186.655; 2.39246
 721.92;  215.160;  213.502;  214.834; 1.65749
 722.49;  202.340;  201.629;  202.874; 0.71052
 723.06;  198.852;  196.995;  198.919; 1.85655
 723.63;  169.696;  168.261;  168.342; 1.43458
 724.19;  211.734;  210.584;  210.839; 1.14961
 724.76;  189.245;  187.411;  189.063; 1.83364
 725.33;  199.657;  197.897;  199.054; 1.75967
 725.90;  219.194;  216.085;  219.058; 3.10870
 726.46;  199.715;  199.064;  233.585; 0.65074
 727.03;  217.141;  216.827;  315.146; 0.31377
 727.60;  160.320;  158.577;  231.534; 1.74280
 728.17;  201.854;  201.250;  215.136; 0.60383
 728.74;  209.497;  207.677;  209.799; 1.81986
 729.30;  192.723;  190.703;  191.518; 2.01989
 729.87;  191.969;  189.602;  192.096; 2.36692
 730.44;  216.468;  214.480;  216.598; 1.98795
 731.01;  207.963;  206.154;  208.547; 1.80899
 731.57;  190.052;  188.769;  190.066; 1.28302
 732.14;  186.447;  185.238;  186.899; 1.20905
 732.71;  189.647;  189.504;  189.752; 0.14308
 733.28;  228.484;  225.996;  228.133; 2.48811
 733.84;  185.646;  184.066;  185.858; 1.58014
 734.41;  184.333;  183.478;  184.891; 0.85517
 734.98;  207.352;  205.839;  207.761; 1.51320
 735.54;  222.307;  220.476;  221.853; 1.83124
 736.11;  190.020;  188.486;  191.575; 1.53427
 736.68;  183.690;  181.556;  186.264; 2.13430
 737.25;  194.739;  192.285;  210.177; 2.45433
 737.81;  206.515;  204.735;  317.032; 1.78036
 738.38;  200.546;  197.338;  364.691; 3.20839
 738.95;  215.506;  214.190;  282.287; 1.31642
 739.51;  209.472;  207.651;  217.624; 1.82145
 740.08;  204.788;  203.803;  207.208; 0.98549
 740.65;  188.879;  186.757;  188.889; 2.12252
 741.21;  203.266;  201.619;  203.778; 1.64755
 741.78;  207.283;  205.043;  208.168; 2.24058
 742.35;  203.775;  202.635;  203.225; 1.14061
 742.91;  218.445;  218.064;  219.878; 0.38164
 743.48;  203.110;  202.020;  203.324; 1.09067
 744.05;  197.473;  194.598;  196.786; 2.87570
 744.61;  204.499;  202.621;  204.593; 1.87874
 745.18;  186.475;  184.489;  187.125; 1.98577
 745.75;  200.691;  198.902;  201.497; 1.78880
 746.31;  228.710;  227.117;  230.891; 1.59283
 746.88;  198.163;  197.463;  200.522; 0.69986
 747.44;  198.627;  196.948;  201.675; 1.67889
 748.01;  228.522;  225.727;  231.329; 2.79492
 748.58;  207.622;  206.459;  213.293; 1.16295
 749.14;  196.983;  195.320;  226.526; 1.66299
 749.71;  196.013;  194.992;  451.231; 1.02102
 750.28;  202.370;  200.796;  683.607; 1.57405
 750.84;  204.401;  203.385;  549.218; 1.01608
 751.41;  189.462;  188.430;  400.206; 1.03211
 751.97;  200.258;  199.507;  287.792; 0.75114
 752.54;  194.395;  193.296;  213.887; 1.09917
 753.11;  192.968;  190.444;  198.839; 2.52420
 753.67;  201.717;  200.677;  204.969; 1.04024
 754.24;  195.058;  192.725;  196.031; 2.33327
 754.80;  220.327;  218.439;  221.209; 1.88830
 755.37;  179.168;  177.462;  180.823; 1.70633
 755.93;  213.688;  212.676;  215.748; 1.01236
 756.50;  204.669;  202.908;  204.941; 1.76139
 757.07;  209.439;  208.584;  211.182; 0.85542
 757.63;  182.787;  181.690;  183.805; 1.09745
 758.20;  186.134;  183.849;  187.333; 2.28549
 758.76;  194.165;  192.298;  194.976; 1.86652
 759.33;  165.795;  163.928;  168.252; 1.86655
 759.89;  192.761;  191.178;  196.370; 1.58258
 760.46;  194.769;  193.816;  198.611; 0.95261
 761.02;  208.460;  206.116;  212.126; 2.34364
 761.59;  189.191;  188.496;  198.304; 0.69467
 762.15;  205.974;  204.001;  247.196; 1.97270
 762.72;  191.289;  191.263;  649.960; 0.02573
 763.28;  180.621;  179.637; 1239.594; 0.98377
 763.85;  195.292;  194.628;  891.355; 0.66380
 764.41;  201.673;  198.561;  332.429; 3.11183
 764.98;  206.293;  204.439;  229.754; 1.85386
 765.54;  204.031;  201.436;  213.852; 2.59489
 766.11;  199.242;  198.048;  202.867; 1.19392
 766.67;  175.584;  174.369;  178.359; 1.21495
 767.24;  201.562;  200.485;  202.687; 1.07698
 767.80;  190.386;  188.137;  191.715; 2.24902
 768.37;  188.821;  185.599;  189.443; 3.22205
 768.93;  187.441;  185.871;  189.093; 1.57008
 769.50;  196.432;  195.132;  198.465; 1.30011
 770.06;  187.260;  185.446;  190.397; 1.81414
 770.63;  193.266;  192.135;  199.082; 1.13117
 771.19;  190.613;  189.325;  227.151; 1.28820
 771.75;  178.253;  175.993;  467.412; 2.26023
 772.32;  181.325;  179.042;  655.670; 2.28227
 772.88;  196.602;  194.500;  430.088; 2.10130
 773.45;  188.781;  186.976;  224.071; 1.80433
 774.01;  191.118;  189.634;  198.828; 1.48336
 774.58;  189.161;  187.539;  194.013; 1.62139
 775.14;  210.295;  208.743;  209.763; 1.55142
 775.70;  208.956;  206.499;  210.502; 2.45645
 776.27;  198.834;  199.065;  201.405;-0.23152
 776.83;  203.442;  202.232;  204.461; 1.20952
 777.40;  182.600;  181.002;  181.585; 1.59755
 777.96;  183.987;  182.512;  183.867; 1.47458
 778.52;  209.549;  207.355;  207.743; 2.19361
 779.09;  202.253;  200.702;  201.800; 1.55064
 779.65;  204.187;  201.821;  203.406; 2.36567
 780.22;  188.374;  186.609;  187.576; 1.76470
 780.78;  216.939;  214.842;  214.658; 2.09673
 781.34;  215.251;  214.054;  214.646; 1.19677
 781.91;  193.446;  190.683;  191.584; 2.76280
 782.47;  234.367;  231.725;  232.910; 2.64183
 783.03;  212.441;  211.298;  211.398; 1.14286
 783.60;  190.619;  190.005;  191.427; 0.61389
 784.16;  220.171;  219.009;  220.687; 1.16192
 784.72;  192.890;  190.809;  193.537; 2.08095
 785.29;  201.344;  199.705;  201.212; 1.63898
 785.85;  221.677;  220.183;  220.478; 1.49402
 786.41;  205.851;  205.674;  206.244; 0.17705
 786.98;  198.375;  195.635;  197.510; 2.74008
 787.54;  220.142;  217.953;  218.860; 2.18911
 788.10;  196.646;  196.271;  196.332; 0.37514
 788.67;  210.537;  209.696;  210.754; 0.84117
 789.23;  199.223;  197.981;  198.879; 1.24220
 789.79;  212.816;  210.325;  213.134; 2.49123
 790.36;  193.219;  191.447;  191.785; 1.77227
 790.92;  207.159;  205.343;  206.587; 1.81630
 791.48;  191.785;  190.716;  193.516; 1.06933
 792.05;  217.476;  216.545;  218.837; 0.93136
 792.61;  203.559;  201.726;  203.583; 1.83339
 793.17;  210.912;  209.030;  215.509; 1.88242
 793.73;  212.902;  211.029;  244.626; 1.87345
 794.30;  210.172;  208.320;  356.072; 1.85248
 794.86;  221.324;  220.019;  393.666; 1.30552
 795.42;  201.814;  201.154;  263.159; 0.66055
 795.98;  202.069;  199.960;  211.893; 2.10958
 796.55;  193.406;  191.526;  195.486; 1.88061
 797.11;  211.019;  209.581;  212.302; 1.43864
 797.67;  242.693;  242.028;  245.084; 0.66567
 798.23;  182.770;  181.340;  184.555; 1.43070
 798.80;  216.677;  215.475;  218.281; 1.20273
 799.36;  219.462;  217.310;  232.696; 2.15176
 799.92;  213.700;  210.674;  310.328; 3.02580
 800.48;  219.796;  217.297;  413.728; 2.49883
 801.05;  212.861;  212.953;  422.721;-0.09214
 801.61;  212.760;  211.410;  353.586; 1.34989
 802.17;  204.391;  202.600;  244.980; 1.79092
 802.73;  218.865;  217.123;  224.876; 1.74195
 803.29;  185.367;  184.312;  188.525; 1.05498
 803.86;  216.330;  214.539;  216.753; 1.79101
 804.42;  220.032;  218.292;  221.554; 1.74005
 804.98;  236.035;  233.557;  235.995; 2.47808
 805.54;  219.482;  217.794;  220.379; 1.68811
 806.10;  215.703;  215.070;  216.959; 0.63314
 806.66;  249.038;  247.272;  249.895; 1.76617
 807.23;  223.063;  220.999;  223.658; 2.06420
 807.79;  215.793;  214.425;  216.850; 1.36823
 808.35;  226.042;  224.428;  227.824; 1.61426
 808.91;  205.801;  203.629;  212.987; 2.17230
 809.47;  196.446;  194.215;  264.386; 2.23133
 810.03;  208.869;  207.620;  392.351; 1.24936
 810.60;  237.321;  235.782;  507.373; 1.53939
 811.16;  201.169;  200.082;  629.834; 1.08742
 811.72;  237.809;  237.304;  583.026; 0.50545
 812.28;  209.072;  207.712;  305.465; 1.36048
 812.84;  228.087;  227.567;  245.167; 0.51951
 813.40;  239.826;  238.954;  247.112; 0.87155
 813.96;  229.519;  228.043;  235.064; 1.47558
 814.52;  229.094;  227.148;  230.727; 1.94561
 815.09;  216.337;  214.099;  217.536; 2.23764
 815.65;  230.576;  228.457;  230.944; 2.11867
 816.21;  221.984;  221.312;  222.389; 0.67170
 816.77;  227.304;  224.432;  225.660; 2.87173
 817.33;  222.513;  221.692;  222.182; 0.82076
 817.89;  219.669;  218.744;  219.820; 0.92480
 818.45;  252.384;  251.049;  252.643; 1.33483
 819.01;  229.952;  228.098;  231.281; 1.85386
 819.57;  225.960;  224.864;  224.944; 1.09589
 820.13;  224.099;  222.154;  224.373; 1.94492
 820.69;  242.389;  241.931;  243.814; 0.45795
 821.25;  220.923;  219.341;  220.494; 1.58198
 821.82;  211.690;  210.393;  212.805; 1.29701
 822.38;  230.386;  229.679;  231.349; 0.70705
 822.94;  232.299;  230.592;  232.561; 1.70708
 823.50;  229.974;  228.000;  228.708; 1.97411
 824.06;  229.115;  226.497;  230.499; 2.61814
 824.62;  219.812;  218.567;  223.250; 1.24517
 825.18;  254.681;  251.837;  282.566; 2.84420
 825.74;  211.856;  208.962;  403.395; 2.89423
 826.30;  211.413;  208.177;  526.098; 3.23526
 826.86;  214.757;  213.238;  384.641; 1.51830
 827.42;  232.815;  232.026;  267.421; 0.78833
 827.98;  236.701;  235.467;  242.654; 1.23336
 828.54;  222.112;  220.713;  226.714; 1.39839
 829.10;  214.747;  213.448;  216.639; 1.29842
 829.66;  235.389;  235.338;  237.048; 0.05045
 830.22;  220.435;  217.629;  218.789; 2.80548
 830.78;  206.732;  204.590;  205.779; 2.14151
 831.34;  220.259;  218.723;  221.566; 1.53555
 831.90;  232.741;  231.867;  232.594; 0.87358
 832.46;  222.063;  220.778;  222.131; 1.28461
 833.02;  194.271;  192.352;  193.142; 1.91864
 833.58;  227.265;  224.886;  226.969; 2.37867
 834.14;  217.621;  216.980;  217.512; 0.64070
 834.70;  229.017;  228.933;  228.005; 0.08373
 835.25;  196.814;  196.040;  196.137; 0.77376
 835.81;  206.690;  204.502;  206.325; 2.18780
 836.37;  218.063;  215.627;  216.196; 2.43583
 836.93;  230.145;  228.608;  229.202; 1.53686
 837.49;  226.539;  224.590;  224.375; 1.94889
 838.05;  201.091;  199.422;  201.486; 1.66892
 838.61;  212.558;  209.687;  213.059; 2.87095
 839.17;  209.401;  207.258;  211.516; 2.14298
 839.73;  219.658;  217.003;  251.805; 2.65501
 840.29;  226.876;  225.061;  351.164; 1.81504
 840.85;  204.849;  202.626;  347.146; 2.22308
 841.41;  215.300;  213.673;  322.252; 1.62711
 841.97;  216.120;  213.104;  411.688; 3.01614
 842.52;  215.415;  213.883;  414.539; 1.53217
 843.08;  201.743;  199.353;  272.665; 2.39020
 843.64;  206.986;  205.320;  219.877; 1.66623
 844.20;  215.650;  214.437;  219.792; 1.21326
 844.76;  226.543;  224.481;  227.489; 2.06229
 845.32;  183.186;  181.574;  182.083; 1.61233
 845.88;  211.526;  210.570;  212.597; 0.95636
 846.44;  222.118;  220.229;  221.439; 1.88939
 846.99;  232.406;  231.162;  234.014; 1.24442
 847.55;  212.699;  210.301;  211.176; 2.39845
 848.11;  182.713;  181.391;  184.253; 1.32248
 848.67;  209.864;  208.151;  209.677; 1.71351
 849.23;  189.115;  186.091;  187.354; 3.02454
 849.79;  208.625;  206.661;  207.754; 1.96458
 850.34;  216.044;  213.568;  217.249; 2.47661
 850.90;  187.851;  186.282;  198.598; 1.56964
 851.46;  225.216;  223.285;  284.448; 1.93167
 852.02;  225.041;  222.700;  310.051; 2.34170
 852.58;  182.868;  182.035;  226.479; 0.83373
 853.13;  204.389;  202.097;  212.880; 2.29176
 853.69;  206.443;  204.621;  207.591; 1.82179
 854.25;  240.407;  239.574;  240.958; 0.83283
 854.81;  201.927;  201.336;  201.292; 0.59086
 855.37;  205.848;  203.339;  203.110; 2.50889
 855.92;  227.543;  224.481;  225.933; 3.06192
 856.48;  205.840;  204.465;  204.808; 1.37495
 857.04;  226.007;  224.955;  224.937; 1.05198
 857.60;  223.295;  222.493;  221.691; 0.80201
 858.16;  218.095;  217.010;  217.639; 1.08504
 858.71;  228.886;  228.949;  227.251;-0.06292
 859.27;  212.083;  209.793;  210.295; 2.29011
 859.83;  210.680;  209.726;  211.887; 0.95414
 860.39;  208.880;  206.651;  207.988; 2.22917
 860.94;  209.415;  208.686;  208.898; 0.72920
 861.50;  202.697;  201.573;  202.645; 1.12423
 862.06;  217.941;  216.401;  216.264; 1.54026
 862.61;  216.235;  215.224;  216.371; 1.01129
 863.17;  189.039;  186.584;  187.515; 2.45533
 863.73;  223.878;  222.909;  223.272; 0.96936
 864.29;  212.726;  211.539;  211.240; 1.18739
 864.84;  220.428;  219.288;  219.672; 1.14042
 865.40;  219.815;  218.929;  219.038; 0.88645
 865.96;  205.704;  204.142;  208.804; 1.56248
 866.51;  211.095;  210.481;  222.897; 0.61351
 867.07;  221.651;  219.905;  228.737; 1.74554
 867.63;  235.936;  233.976;  236.493; 1.95958
 868.18;  230.753;  228.459;  229.520; 2.29361
 868.74;  231.670;  230.929;  230.043; 0.74064
 869.30;  214.418;  213.394;  213.752; 1.02367
 869.86;  201.959;  199.934;  201.508; 2.02470
 870.41;  238.946;  237.689;  237.917; 1.25673
 870.97;  210.690;  209.778;  209.444; 0.91176
 871.52;  212.695;  212.214;  212.542; 0.48079
 872.08;  236.352;  233.536;  235.584; 2.81583
 872.64;  219.783;  218.116;  218.988; 1.66686
 873.19;  196.017;  194.531;  195.874; 1.48589
 873.75;  209.466;  208.787;  209.072; 0.67892
 874.31;  205.622;  203.068;  203.565; 2.55395
 874.86;  227.453;  225.968;  226.270; 1.48495
 875.42;  239.053;  236.797;  237.359; 2.25595
 875.98;  220.068;  217.102;  218.238; 2.96595
 876.53;  219.162;  217.915;  218.441; 1.24695
 877.09;  238.096;  235.408;  237.172; 2.68795
 877.64;  220.076;  218.756;  219.847; 1.31995
 878.20;  218.603;  215.559;  217.135; 3.04395
 878.76;  230.882;  230.206;  230.433; 0.67595
 879.31;  192.343;  190.849;  191.037; 1.49395
 879.87;  225.923;  223.753;  225.200; 2.16995
 880.42;  218.997;  217.732;  218.426; 1.26495
 880.98;  208.914;  206.360;  206.335; 2.55395
 881.54;  242.209;  241.020;  239.657; 1.18895
 882.09;  217.865;  216.433;  217.616; 1.43195
 882.65;  235.801;  233.714;  233.592; 2.08695
 883.20;  229.099;  227.058;  227.445; 2.04095
 883.76;  231.093;  228.708;  229.491; 2.38495
 884.31;  224.935;  222.743;  222.772; 2.19195
 884.87;  254.716;  252.548;  252.670; 2.16795
 885.42;  215.629;  214.335;  214.634; 1.29395
 885.98;  204.415;  202.289;  203.171; 2.12595
 886.53;  223.380;  223.002;  221.606; 0.37795
 887.09;  235.033;  232.955;  233.277; 2.07795
 887.65;  227.738;  224.710;  227.075; 3.02795
 888.20;  220.961;  220.916;  219.081; 0.04495
 888.76;  217.534;  216.685;  216.553; 0.84895
 889.31;  228.508;  227.103;  227.063; 1.40495
 889.87;  229.405;  226.996;  226.933; 2.40895
 890.42;  220.348;  218.058;  219.404; 2.28995
 890.98;  225.787;  223.814;  224.217; 1.97295
 891.53;  199.564;  198.607;  198.956; 0.95695
 892.09;  235.539;  234.420;  233.343; 1.11895
 892.64;  218.438;  216.970;  217.915; 1.46795
 893.19;  222.382;  221.025;  221.488; 1.35695
 893.75;  207.731;  206.427;  206.559; 1.30395
 894.30;  237.467;  234.563;  236.042; 2.90395
 894.86;  205.846;  204.328;  205.145; 1.51795
 895.41;  243.555;  242.056;  242.484; 1.49895
 895.97;  207.309;  206.681;  207.451; 0.62795
 896.52;  243.899;  242.153;  244.098; 1.74595
 897.08;  228.592;  226.264;  227.097; 2.32795
 897.63;  242.821;  240.613;  242.463; 2.20795
 898.19;  223.321;  222.486;  221.941; 0.83495
 898.74;  243.875;  242.666;  241.964; 1.20895
 899.29;  242.017;  240.616;  241.423; 1.40095
 899.85;  218.776;  216.887;  217.840; 1.88895
 900.40;  226.194;  223.436;  224.623; 2.75795
 900.96;  227.298;  225.042;  224.386; 2.25595
 901.51;  222.951;  221.581;  221.344; 1.36995
 902.06;  227.337;  225.004;  225.298; 2.33295
 902.62;  237.577;  235.807;  235.915; 1.76995
 903.17;  233.374;  231.255;  232.176; 2.11895
 903.73;  236.006;  233.905;  235.707; 2.10095
 904.28;  218.100;  217.238;  216.385; 0.86195
 904.83;  251.648;  249.294;  249.126; 2.35395
 905.39;  204.083;  201.924;  202.872; 2.15895
 905.94;  230.295;  229.093;  229.504; 1.20195
 906.50;  240.026;  239.345;  239.323; 0.68095
 907.05;  220.607;  218.611;  219.363; 1.99595
 907.60;  238.085;  234.657;  236.963; 3.42795
 908.16;  228.709;  226.200;  228.085; 2.50895
 908.71;  230.452;  228.325;  229.913; 2.12695
 909.26;  233.992;  232.342;  233.397; 1.64995
 909.82;  226.091;  224.382;  227.376; 1.70895
 910.37;  230.089;  228.045;  235.399; 2.04395
 910.92;  240.054;  238.386;  281.745; 1.66795
 911.48;  237.273;  236.515;  481.890; 0.75795
 912.03;  211.004;  210.011;  613.633; 0.99295
 912.58;  228.676;  227.942;  476.373; 0.73395
 913.14;  235.252;  231.486;  301.799; 3.76595
 913.69;  256.344;  255.066;  269.488; 1.27795
 914.24;  216.312;  215.870;  222.219; 0.44195
 914.79;  216.324;  214.815;  218.365; 1.50895
 915.35;  233.832;  231.504;  234.392; 2.32795
 915.90;  239.266;  237.419;  240.487; 1.84695
 916.45;  218.920;  217.425;  218.208; 1.49495
 917.01;  233.851;  232.757;  232.894; 1.09395
 917.56;  228.744;  226.029;  227.311; 2.71495
 918.11;  226.386;  225.175;  226.003; 1.21095
 918.66;  222.207;  220.165;  220.789; 2.04195
 919.22;  236.983;  234.901;  236.207; 2.08195
 919.77;  220.233;  218.968;  221.133; 1.26495
 920.32;  224.218;  223.321;  224.244; 0.89695
 920.87;  230.918;  229.100;  232.864; 1.81795
 921.43;  223.116;  221.571;  250.486; 1.54495
 921.98;  209.779;  208.602;  276.799; 1.17695
 922.53;  216.242;  213.204;  271.522; 3.03795
 923.08;  226.191;  224.258;  245.586; 1.93295
 923.64;  227.181;  225.687;  232.794; 1.49395
 924.19;  230.582;  228.536;  231.064; 2.04595
 924.74;  210.157;  208.642;  211.372; 1.51495
 925.29;  259.436;  257.927;  260.667; 1.50895
 925.84;  235.021;  233.893;  234.899; 1.12795
 926.40;  213.323;  212.756;  212.506; 0.56695
 926.95;  216.155;  214.443;  214.402; 1.71195
 927.50;  216.303;  214.218;  216.696; 2.08495
 928.05;  226.957;  226.003;  226.066; 0.95395
 928.60;  213.583;  212.368;  210.903; 1.21495
 929.15;  230.116;  227.681;  228.948; 2.43495
 929.71;  240.145;  238.590;  238.862; 1.55495
 930.26;  221.487;  219.878;  220.145; 1.60895
 930.81;  227.437;  225.770;  226.373; 1.66695
 931.36;  237.126;  235.038;  235.832; 2.08795
 931.91;  242.574;  240.767;  241.662; 1.80695
 932.46;  239.114;  237.054;  237.655; 2.05995
 933.02;  224.892;  225.029;  224.869;-0.13705
 933.57;  213.722;  212.139;  211.497; 1.58295
 934.12;  213.082;  211.871;  212.075; 1.21095
 934.67;  230.403;  227.530;  232.336; 2.87295
 935.22;  222.194;  220.625;  225.680; 1.56895
 935.77;  248.029;  247.085;  247.265; 0.94395
 936.32;  234.173;  231.228;  233.242; 2.94495
 936.87;  236.227;  233.324;  234.404; 2.90295
 937.42;  230.472;  229.450;  230.149; 1.02195
 937.98;  211.588;  208.921;  211.733; 2.66695
 938.53;  222.787;  220.828;  221.566; 1.95895
 939.08;  213.072;  211.982;  213.091; 1.08995
 939.63;  234.467;  233.619;  233.627; 0.84795
 940.18;  245.831;  244.439;  245.398; 1.39195
 940.73;  224.827;  224.569;  224.525; 0.25795
 941.28;  211.060;  209.417;  210.218; 1.64295
 941.83;  218.177;  217.913;  218.300; 0.26395
 942.38;  212.759;  212.660;  212.832; 0.09895
 942.93;  231.602;  229.033;  228.633; 2.56895
 943.48;  228.988;  226.126;  227.078; 2.86195
 944.03;  212.654;  210.595;  210.439; 2.05895
 944.58;  217.318;  216.394;  217.194; 0.92395
 945.13;  214.033;  212.115;  212.387; 1.91795
 945.68;  207.367;  205.026;  206.217; 2.34095
 946.23;  215.165;  214.309;  213.880; 0.85595
 946.79;  216.768;  213.919;  214.171; 2.84895
 947.34;  234.409;  232.970;  232.911; 1.43895
 947.89;  239.596;  238.454;  238.836; 1.14195
 948.44;  219.407;  218.034;  219.284; 1.37295
 948.99;  217.998;  216.337;  216.924; 1.66095
 949.54;  233.166;  231.747;  230.186; 1.41895
 950.09;  216.516;  215.315;  216.219; 1.20095
 950.64;  215.079;  214.496;  213.164; 0.58295
 951.19;  196.821;  194.598;  195.816; 2.22295
 951.73;  188.980;  187.468;  187.208; 1.51195
 952.28;  231.163;  230.153;  230.870; 1.00995
 952.83;  224.436;  223.607;  222.726; 0.82895
 953.38;  244.838;  243.162;  243.581; 1.67595
 953.93;  219.275;  217.030;  216.650; 2.24495
 954.48;  219.909;  217.431;  219.371; 2.47795
 955.03;  224.441;  222.576;  222.641; 1.86495
 955.58;  221.610;  220.979;  220.638; 0.63095
 956.13;  193.410;  192.731;  192.119; 0.67895
 956.68;  205.297;  203.079;  204.813; 2.21795
 957.23;  193.206;  191.531;  190.369; 1.67495
 957.78;  206.394;  203.775;  204.342; 2.61895
 958.33;  185.536;  183.503;  184.908; 2.03295
 958.88;  213.622;  212.988;  214.074; 0.63395
 959.43;  221.097;  220.040;  220.660; 1.05695
 959.98;  208.728;  206.625;  207.110; 2.10295
 960.53;  237.912;  234.353;  235.735; 3.55895
 961.07;  207.294;  205.899;  205.337; 1.39495
 961.62;  251.601;  249.831;  250.070; 1.76995
 962.17;  215.138;  212.941;  213.949; 2.19695
 962.72;  218.778;  216.711;  217.978; 2.06695
 963.27;  218.402;  218.041;  218.272; 0.36095
 963.82;  207.169;  206.243;  207.269; 0.92595
 964.37;  229.123;  227.685;  240.124; 1.43795
 964.92;  210.346;  208.531;  264.450; 1.81495
 965.46;  199.241;  196.744;  280.889; 2.49695
 966.01;  212.905;  209.771;  262.804; 3.13395
 966.56;  223.782;  222.364;  237.515; 1.41795
 967.11;  227.932;  224.708;  227.550; 3.22395
 967.66;  213.278;  211.547;  213.586; 1.73095
 968.21;  208.140;  207.716;  208.194; 0.42395
 968.75;  227.107;  225.245;  224.204; 1.86195
 969.30;  217.661;  216.954;  216.833; 0.70695
 969.85;  235.287;  234.176;  233.361; 1.11095
 970.40;  223.034;  222.700;  220.821; 0.33395
 970.95;  228.305;  226.417;  226.071; 1.88795
 971.50;  224.712;  223.073;  223.994; 1.63895
 972.04;  224.993;  223.538;  225.460; 1.45495
 972.59;  236.063;  234.311;  233.089; 1.75195
 973.14;  227.980;  226.251;  226.225; 1.72895
 973.69;  236.548;  235.170;  235.642; 1.37795
 974.24;  221.103;  219.690;  220.206; 1.41295
 974.78;  217.269;  216.344;  215.873; 0.92495
 975.33;  247.986;  245.614;  245.834; 2.37195
 975.88;  231.412;  229.418;  229.422; 1.99395
 976.43;  228.744;  227.936;  227.200; 0.80795
 976.97;  223.075;  221.542;  220.970; 1.53295
 977.52;  212.131;  210.631;  212.176; 1.49995
 978.07;  258.233;  256.094;  261.140; 2.13895
 978.62;  246.825;  245.501;  249.999; 1.32395
 979.16;  244.184;  243.324;  245.899; 0.85995
 979.71;  213.410;  210.246;  211.338; 3.16395
 980.26;  233.621;  232.162;  233.353; 1.45895
 980.81;  232.118;  231.327;  230.718; 0.79095
 981.35;  256.894;  254.473;  254.809; 2.42095
 981.90;  244.180;  243.010;  241.517; 1.16995
 982.45;  241.138;  240.057;  240.405; 1.08095
 982.99;  244.437;  241.941;  242.664; 2.49595
 983.54;  241.988;  239.979;  239.293; 2.00895
 984.09;  232.544;  230.442;  231.355; 2.10195
 984.63;  230.743;  228.876;  228.448; 1.86695
 985.18;  243.943;  242.114;  242.377; 1.82895
 985.73;  237.746;  235.992;  235.860; 1.75395
 986.27;  226.841;  225.317;  224.967; 1.52395
 986.82;  234.550;  232.007;  233.190; 2.54295
 987.37;  250.005;  246.398;  246.808; 3.60695
 987.91;  239.124;  236.684;  236.652; 2.43995
 988.46;  248.560;  244.922;  247.721; 3.63795
 989.01;  240.258;  239.168;  237.572; 1.08995
 989.55;  242.232;  240.845;  241.214; 1.38695
 990.10;  250.594;  247.882;  248.030; 2.71195
 990.65;  266.373;  264.063;  262.831; 2.30995
 991.19;  236.628;  236.583;  236.217; 0.04495
 991.74;  255.810;  255.060;  254.016; 0.74995
 992.29;  244.433;  242.377;  243.190; 2.05595
 992.83;  256.365;  255.509;  254.085; 0.85595
 993.38;  250.599;  248.869;  247.359; 1.72995
 993.92;  229.158;  228.304;  226.472; 0.85395
 994.47;  219.863;  216.438;  216.807; 3.42495
 995.02;  237.688;  236.276;  236.735; 1.41195
 995.56;  257.341;  256.141;  256.692; 1.19995
 996.11;  246.527;  247.013;  246.882;-0.48605
 996.65;  249.237;  247.453;  247.876; 1.78395
 997.20;  242.782;  240.169;  240.294; 2.61295
 997.75;  241.035;  239.996;  239.437; 1.03895
 998.29;  219.277;  216.003;  216.133; 3.27395
 998.84;  246.172;  244.933;  245.329; 1.23895
 999.38;  247.742;  246.476;  244.812; 1.26595
 999.93;  264.718;  261.243;  261.675; 3.47495
1000.47;  261.263;  260.203;  260.831; 1.05995
1001.02;  255.208;  254.354;  253.386; 0.85395
1001.56;  242.667;  240.741;  239.780; 1.92595
1002.11;  232.607;  231.050;  230.445; 1.55695
1002.65;  225.046;  224.299;  223.243; 0.74695
1003.20;  234.265;  232.482;  231.881; 1.78295
1003.75;  267.843;  265.828;  266.036; 2.01495
1004.29;  235.763;  234.636;  233.303; 1.12695
1004.84;  220.380;  219.628;  220.546; 0.75195
1005.38;  224.378;  222.757;  222.859; 1.62095
1005.93;  244.308;  242.295;  241.364; 2.01295
1006.47;  222.475;  220.477;  220.692; 1.99795
1007.02;  230.364;  227.889;  227.662; 2.47495
1007.56;  245.960;  243.707;  242.798; 2.25295
1008.11;  251.011;  250.297;  249.411; 0.71395
1008.65;  209.578;  207.523;  207.079; 2.05495
1009.19;  237.088;  235.898;  236.390; 1.18995
1009.74;  233.471;  230.551;  231.223; 2.91995
1010.28;  235.889;  233.466;  234.215; 2.42295
1010.83;  243.991;  242.042;  242.437; 1.94895
1011.37;  236.530;  235.158;  235.037; 1.37195
1011.92;  235.686;  233.780;  235.208; 1.90595
1012.46;  228.080;  227.256;  230.410; 0.82395
1013.01;  264.697;  262.076;  282.128; 2.62095
1013.55;  234.326;  232.732;  261.377; 1.59395
1014.09;  229.653;  228.539;  247.080; 1.11395
1014.64;  228.307;  227.787;  235.199; 0.51995
1015.18;  226.059;  225.081;  226.875; 0.97795
1015.73;  221.711;  220.280;  221.345; 1.43095
1016.27;  241.884;  240.147;  239.850; 1.73695
1016.82;  234.112;  232.308;  232.899; 1.80395
1017.36;  227.728;  224.141;  224.463; 3.58695
1017.90;  215.822;  214.151;  214.821; 1.67095
1018.45;  210.546;  209.241;  209.010; 1.30495
1018.99;  211.931;  211.398;  213.271; 0.53295
1019.53;  202.057;  200.198;  199.948; 1.85895
1020.08;  229.215;  227.278;  227.485; 1.93695
1020.62;  230.263;  228.572;  229.827; 1.69095
1021.17;  233.429;  232.641;  232.392; 0.78795
1021.71;  233.907;  231.938;  232.866; 1.96895
1022.25;  242.622;  238.795;  239.904; 3.82695
1022.80;  215.590;  213.494;  214.907; 2.09595
1023.34;  212.402;  210.921;  211.512; 1.48095
1023.88;  226.188;  225.958;  224.103; 0.22995
1024.43;  231.868;  229.192;  229.391; 2.67595
1024.97;  234.690;  232.468;  233.233; 2.22195
1025.51;  214.061;  213.056;  213.395; 1.00495
1026.06;  230.650;  228.663;  227.836; 1.98695
1026.60;  234.967;  232.935;  233.723; 2.03195
1027.14;  246.770;  244.409;  244.366; 2.36095
1027.69;  235.479;  233.391;  232.097; 2.08795
1028.23;  229.946;  227.864;  228.253; 2.08195
1028.77;  213.166;  210.959;  212.300; 2.20695
1029.31;  225.992;  223.907;  224.128; 2.08495
1029.86;  219.797;  217.588;  216.083; 2.20895
1030.40;  263.867;  261.277;  262.077; 2.58995
1030.94;  233.530;  231.815;  232.446; 1.71495
1031.48;  242.322;  241.865;  240.883; 0.45695
1032.03;  230.708;  228.825;  227.501; 1.88295
1032.57;  231.865;  229.710;  229.752; 2.15495
1033.11;  226.941;  225.599;  224.720; 1.34195
1033.65;  216.105;  215.604;  213.877; 0.50095
1034.20;  236.852;  234.869;  235.433; 1.98295
1034.74;  233.464;  231.769;  231.019; 1.69495
1035.28;  233.640;  231.913;  231.832; 1.72695
1035.82;  211.213;  208.719;  209.377; 2.49395
1036.37;  223.989;  223.026;  221.872; 0.96295
1036.91;  248.347;  247.037;  248.405; 1.30995
1037.45;  241.246;  238.466;  237.398; 2.77995
1037.99;  230.283;  228.249;  227.965; 2.03395
1038.53;  229.994;  228.503;  229.202; 1.49095
1039.08;  218.650;  217.063;  217.129; 1.58695
1039.62;  218.308;  217.190;  215.711; 1.11795
1040.16;  223.430;  221.639;  220.940; 1.79095
1040.70;  229.133;  227.786;  226.788; 1.34695
1041.24;  243.614;  243.354;  243.321; 0.25995
1041.79;  219.216;  217.552;  217.096; 1.66395
1042.33;  226.354;  224.346;  223.935; 2.00795
1042.87;  220.081;  217.206;  216.620; 2.87495
1043.41;  224.788;  222.501;  221.794; 2.28695
1043.95;  236.814;  234.598;  234.674; 2.21595
1044.49;  205.280;  203.225;  204.268; 2.05495
1045.04;  236.044;  233.232;  234.685; 2.81195
1045.58;  228.330;  225.819;  225.050; 2.51095
1046.12;  257.790;  254.707;  256.429; 3.08295
1046.66;  238.898;  236.566;  239.465; 2.33195
1047.20;  219.082;  218.107;  220.647; 0.97495
1047.74;  253.856;  252.960;  252.264; 0.89595
1048.28;  236.680;  233.803;  234.715; 2.87695
1048.82;  251.602;  249.718;  249.899; 1.88395
1049.36;  254.546;  252.411;  252.537; 2.13495
1049.91;  243.153;  240.165;  240.839; 2.98795
1050.45;  234.476;  233.614;  233.443; 0.86195
1050.99;  255.801;  253.961;  253.565; 1.83995
1051.53;  259.846;  258.279;  258.198; 1.56695
1052.07;  233.309;  231.776;  231.546; 1.53295
1052.61;  234.346;  232.081;  231.951; 2.26495
1053.15;  244.023;  243.212;  242.976; 0.81095
1053.69;  236.695;  235.231;  236.380; 1.46395
1054.23;  242.834;  240.856;  241.171; 1.97795
1054.77;  257.988;  256.236;  255.399; 1.75195
1055.31;  241.825;  239.527;  239.084; 2.29795
1055.85;  232.937;  231.508;  232.209; 1.42895
1056.39;  234.796;  231.911;  231.936; 2.88495
1056.93;  242.597;  240.977;  240.459; 1.61995
1057.47;  252.697;  251.819;  250.912; 0.87795
1058.01;  250.165;  247.962;  248.715; 2.20295
1058.55;  247.907;  245.288;  246.950; 2.61895
1059.09;  248.219;  246.810;  246.105; 1.40895
1059.63;  255.165;  254.581;  252.957; 0.58395
1060.17;  268.835;  267.383;  266.822; 1.45195
1060.71;  233.123;  231.281;  231.876; 1.84195
1061.25;  244.975;  243.365;  243.753; 1.60995
1061.79;  246.144;  244.794;  243.820; 1.34995
1062.33;  239.023;  237.078;  237.818; 1.94495
1062.87;  269.980;  267.830;  267.178; 2.14995
1063.41;  247.598;  246.600;  245.913; 0.99795
1063.95;  255.682;  253.288;  253.445; 2.39395
1064.49;  236.174;  235.054;  236.618; 1.11995
1065.03;  293.394;  291.317;  291.184; 2.07695
1065.57;  268.211;  264.609;  263.442; 3.60195
1066.11;  248.703;  247.101;  245.700; 1.60195
1066.65;  244.238;  243.172;  242.225; 1.06595
1067.19;  261.565;  260.238;  258.730; 1.32695
1067.73;  269.412;  268.166;  267.504; 1.24595
1068.27;  238.095;  236.331;  236.573; 1.76395
1068.81;  244.007;  243.212;  242.997; 0.79495
1069.35;  270.465;  267.789;  267.481; 2.67595
1069.89;  237.264;  235.643;  234.383; 1.62095
1070.43;  262.837;  259.949;  259.943; 2.88795
1070.96;  257.807;  256.385;  254.939; 1.42195
1071.50;  256.959;  254.423;  253.966; 2.53595
1072.04;  251.529;  250.627;  249.432; 0.90195
1072.58;  257.413;  256.361;  255.917; 1.05195
1073.12;  269.129;  267.410;  266.714; 1.71895
1073.66;  240.328;  238.047;  237.410; 2.28095
1074.20;  247.529;  246.415;  248.196; 1.11395
1074.74;  255.484;  253.679;  253.551; 1.80495
1075.27;  243.907;  243.478;  243.897; 0.42895
1075.81;  244.312;  244.072;  243.029; 0.23995
1076.35;  251.881;  250.500;  249.120; 1.38095
1076.89;  254.393;  252.503;  251.325; 1.88995
1077.43;  270.734;  269.825;  267.999; 0.90895
1077.97;  257.758;  256.349;  256.720; 1.40895
1078.50;  254.253;  252.629;  252.985; 1.62395
1079.04;  245.553;  244.649;  242.128; 0.90395
1079.58;  251.038;  249.365;  249.444; 1.67295
1080.12;  247.178;  245.001;  245.012; 2.17695
1080.66;  263.611;  261.188;  260.419; 2.42295
1081.20;  240.842;  239.507;  239.541; 1.33495
1081.73;  238.082;  233.600;  233.654; 4.48195
1082.27;  255.623;  254.179;  252.998; 1.44395
1082.81;  260.075;  258.626;  257.378; 1.44895
1083.35;  250.464;  249.198;  248.599; 1.26595
1083.88;  250.457;  248.672;  248.179; 1.78495
1084.42;  266.901;  264.464;  265.394; 2.43695
1084.96;  243.809;  243.203;  241.314; 0.60595
1085.50;  252.576;  250.098;  249.738; 2.47795
1086.04;  248.617;  246.902;  246.985; 1.71495
1086.57;  273.508;  271.733;  271.691; 1.77495
1087.11;  251.218;  249.627;  249.705; 1.59095
1087.65;  242.426;  240.219;  240.281; 2.20695
1088.19;  266.940;  265.083;  264.683; 1.85695
1088.72;  250.673;  249.367;  249.220; 1.30595
1089.26;  243.347;  241.925;  240.830; 1.42195
1089.80;  237.244;  235.339;  235.334; 1.90495
1090.33;  275.717;  273.404;  273.528; 2.31295
1090.87;  230.680;  228.116;  227.543; 2.56395
1091.41;  235.481;  234.206;  233.488; 1.27495
1091.95;  253.774;  251.324;  250.943; 2.44995
1092.48;  265.117;  261.837;  263.655; 3.27995
1093.02;  237.351;  236.268;  235.415; 1.08295
1093.56;  257.257;  255.327;  254.412; 1.92995
1094.09;  231.417;  230.063;  229.661; 1.35395
1094.63;  232.280;  231.309;  230.537; 0.97095
1095.17;  238.769;  237.088;  236.861; 1.68095
1095.70;  253.559;  250.927;  250.037; 2.63195
1096.24;  240.151;  238.468;  237.502; 1.68295
1096.78;  236.650;  235.585;  234.609; 1.06495
1097.31;  239.580;  237.272;  237.279; 2.30795
1097.85;  246.401;  244.074;  243.933; 2.32695
1098.39;  229.876;  227.740;  227.157; 2.13595
1098.92;  243.995;  243.127;  243.537; 0.86795
1099.46;  252.132;  249.541;  249.128; 2.59095
1099.99;  241.369;  239.752;  239.172; 1.61695
1100.53;  245.544;  244.654;  244.501; 0.88995

