
Integration time [ms]:   0.100
Averaging Nr. [scans]: 1000
Smoothing Nr. [pixels]: 0
Data measured with spectrometer [name]: 7213323SP
Wave   ;Sample   ;Dark     ;Reference;Scope Corrected for Dark
[nm]   ;[counts] ;[counts] ;[counts] ;[counts] 

 175.65;  184.587;  180.919;  180.414; 3.66722
 176.25;  205.116;  200.771;  201.051; 4.34500
 176.85;  202.663;  198.074;  197.041; 4.58964
 177.45;  203.333;  199.398;  199.894; 3.93488
 178.05;  194.355;  191.085;  190.085; 3.26979
 178.65;  192.689;  189.686;  189.195; 3.00328
 179.25;  188.963;  185.439;  186.282; 3.52403
 179.85;  196.750;  193.332;  191.669; 3.41801
 180.45;  187.816;  184.832;  185.031; 2.98452
 181.05;  229.599;  226.307;  226.588; 3.29216
 181.65;  190.624;  187.039;  188.083; 3.58532
 182.25;  212.569;  207.692;  206.883; 4.87682
 182.86;  207.330;  204.005;  202.121; 3.32483
 183.46;  205.689;  202.367;  200.708; 3.32180
 184.06;  188.779;  184.141;  185.033; 4.63855
 184.66;  168.846;  166.129;  164.643; 2.71645
 185.26;  211.085;  208.305;  214.998; 2.77983
 185.86;  193.538;  189.907;  191.880; 3.63154
 186.46;  213.966;  210.353;  211.614; 3.61256
 187.06;  195.741;  192.861;  194.406; 2.87930
 187.66;  218.582;  215.591;  216.525; 2.99088
 188.26;  224.003;  219.979;  220.940; 4.02474
 188.86;  202.272;  200.952;  200.640; 1.31972
 189.46;  199.636;  196.104;  198.052; 3.53242
 190.06;  190.441;  186.631;  188.358; 3.81022
 190.66;  196.380;  192.343;  194.493; 4.03654
 191.26;  215.119;  210.484;  212.779; 4.63525
 191.86;  210.128;  206.545;  207.622; 3.58361
 192.46;  208.605;  204.911;  206.770; 3.69427
 193.06;  210.467;  206.281;  207.841; 4.18535
 193.66;  200.314;  196.673;  199.942; 3.64038
 194.26;  216.271;  214.002;  218.472; 2.26916
 194.86;  183.943;  181.785;  184.097; 2.15831
 195.46;  191.357;  189.136;  189.176; 2.22115
 196.06;  203.897;  202.019;  202.533; 1.87773
 196.66;  183.159;  179.580;  181.286; 3.57911
 197.26;  181.603;  178.678;  180.080; 2.92544
 197.86;  212.248;  208.508;  210.197; 3.73915
 198.46;  179.503;  177.168;  179.072; 2.33487
 199.06;  207.581;  204.760;  206.441; 2.82141
 199.66;  196.727;  193.588;  194.867; 3.13939
 200.26;  186.093;  182.810;  185.670; 3.28272
 200.85;  204.207;  200.569;  202.080; 3.63846
 201.45;  196.354;  193.142;  195.434; 3.21191
 202.05;  197.689;  193.539;  195.645; 4.15034
 202.65;  191.507;  188.779;  189.896; 2.72859
 203.25;  182.840;  179.750;  181.206; 3.09020
 203.85;  196.137;  193.742;  195.949; 2.39493
 204.45;  226.798;  223.319;  226.293; 3.47948
 205.05;  170.962;  168.522;  170.599; 2.43973
 205.65;  180.012;  176.045;  177.581; 3.96670
 206.25;  205.402;  202.882;  205.331; 2.51967
 206.85;  183.653;  180.907;  183.435; 2.74525
 207.45;  192.649;  189.768;  191.637; 2.88123
 208.05;  180.577;  177.930;  180.242; 2.64670
 208.65;  183.580;  179.849;  182.976; 3.73054
 209.25;  176.127;  173.287;  174.426; 2.83945
 209.84;  204.147;  202.179;  203.273; 1.96834
 210.44;  185.950;  182.224;  184.524; 3.72583
 211.04;  219.419;  216.133;  219.523; 3.28614
 211.64;  185.575;  182.315;  184.227; 3.26009
 212.24;  197.525;  193.615;  196.408; 3.91048
 212.84;  191.764;  188.539;  191.061; 3.22518
 213.44;  179.347;  175.962;  179.735; 3.38414
 214.04;  177.790;  174.930;  178.889; 2.86047
 214.64;  196.122;  192.531;  196.183; 3.59014
 215.24;  175.720;  172.409;  175.860; 3.31078
 215.83;  196.907;  194.541;  195.308; 2.36631
 216.43;  164.669;  162.022;  164.475; 2.64740
 217.03;  172.600;  169.678;  173.835; 2.92138
 217.63;  177.467;  174.214;  178.008; 3.25334
 218.23;  188.235;  184.270;  187.688; 3.96481
 218.83;  177.899;  175.814;  179.547; 2.08540
 219.43;  175.717;  173.026;  177.218; 2.69161
 220.03;  168.204;  164.787;  168.913; 3.41681
 220.62;  172.882;  170.551;  174.999; 2.33093
 221.22;  183.902;  181.366;  185.496; 2.53606
 221.82;  188.774;  186.418;  189.660; 2.35614
 222.42;  166.658;  164.503;  168.935; 2.15465
 223.02;  179.765;  177.713;  182.327; 2.05213
 223.62;  171.636;  167.507;  175.421; 4.12903
 224.22;  192.168;  187.944;  195.708; 4.22440
 224.81;  185.176;  181.577;  190.209; 3.59907
 225.41;  183.896;  179.759;  189.807; 4.13685
 226.01;  169.776;  166.718;  175.050; 3.05796
 226.61;  173.215;  169.448;  178.854; 3.76733
 227.21;  173.209;  168.681;  178.313; 4.52864
 227.81;  197.663;  194.556;  205.112; 3.10758
 228.40;  165.265;  162.267;  172.708; 2.99827
 229.00;  172.361;  170.117;  181.048; 2.24370
 229.60;  176.331;  173.806;  183.766; 2.52554
 230.20;  201.293;  198.141;  211.512; 3.15214
 230.80;  162.322;  159.033;  172.378; 3.28926
 231.39;  158.687;  156.077;  169.722; 2.61049
 231.99;  176.892;  174.254;  189.251; 2.63859
 232.59;  203.763;  200.302;  217.599; 3.46133
 233.19;  173.805;  170.157;  188.513; 3.64757
 233.79;  184.934;  183.263;  202.434; 1.67041
 234.38;  171.300;  167.956;  190.099; 3.34458
 234.98;  177.165;  173.599;  196.074; 3.56584
 235.58;  180.984;  177.265;  201.586; 3.71944
 236.18;  192.530;  188.653;  212.456; 3.87698
 236.78;  180.432;  176.653;  202.247; 3.77874
 237.37;  192.329;  188.880;  218.441; 3.44971
 237.97;  196.045;  193.095;  224.600; 2.95034
 238.57;  196.609;  194.206;  226.967; 2.40220
 239.17;  166.514;  164.346;  198.792; 2.16727
 239.76;  187.099;  183.664;  220.862; 3.43494
 240.36;  175.204;  172.105;  212.675; 3.09849
 240.96;  204.775;  201.269;  243.349; 3.50651
 241.56;  172.226;  170.013;  211.808; 2.21208
 242.15;  180.404;  175.926;  223.065; 4.47802
 242.75;  198.140;  194.651;  246.418; 3.48924
 243.35;  173.818;  172.579;  226.927; 1.23958
 243.95;  186.165;  183.389;  243.754; 2.77586
 244.54;  199.856;  197.162;  259.178; 2.69395
 245.14;  194.542;  190.255;  258.872; 4.28624
 245.74;  211.371;  208.147;  280.750; 3.22350
 246.34;  183.253;  179.384;  260.989; 3.86947
 246.93;  198.307;  194.540;  283.881; 3.76685
 247.53;  152.015;  150.490;  263.537; 1.52482
 248.13;  192.225;  189.377;  330.762; 2.84869
 248.73;  180.904;  177.307;  312.884; 3.59608
 249.32;  184.986;  182.365;  307.340; 2.62082
 249.92;  174.406;  171.068;  313.021; 3.33801
 250.52;  190.614;  187.482;  364.988; 3.13244
 251.11;  190.959;  188.366;  413.921; 2.59318
 251.71;  205.748;  203.136;  535.383; 2.61277
 252.31;  162.095;  160.999; 1116.602; 1.09578
 252.91;  187.692;  184.060;12306.623; 3.63159
 253.50;  155.491;  152.327;38070.578; 3.16446
 254.10;  196.508;  193.074;33115.004; 3.43415
 254.70;  166.075;  162.164; 7397.543; 3.91083
 255.29;  201.288;  198.845;  779.898; 2.44338
 255.89;  184.626;  182.038;  427.893; 2.58861
 256.49;  167.105;  164.713;  337.986; 2.39127
 257.08;  173.637;  171.252;  312.391; 2.38412
 257.68;  188.712;  185.874;  307.577; 2.83768
 258.28;  185.806;  182.976;  290.710; 2.83014
 258.87;  191.644;  187.683;  281.589; 3.96105
 259.47;  176.935;  174.008;  256.904; 2.92694
 260.07;  183.758;  180.645;  258.984; 3.11349
 260.66;  159.721;  157.355;  230.508; 2.36638
 261.26;  208.163;  206.348;  273.389; 1.81528
 261.86;  200.033;  196.204;  260.153; 3.82842
 262.45;  175.989;  172.167;  231.401; 3.82194
 263.05;  175.389;  172.644;  230.199; 2.74417
 263.65;  176.103;  174.826;  226.449; 1.27658
 264.24;  192.746;  190.153;  241.350; 2.59347
 264.84;  204.153;  202.018;  281.498; 2.13515
 265.44;  182.384;  178.873;  273.867; 3.51076
 266.03;  176.578;  174.292;  231.179; 2.28638
 266.63;  167.384;  164.434;  197.785; 2.94992
 267.23;  182.966;  179.403;  211.605; 3.56245
 267.82;  163.156;  160.119;  187.883; 3.03637
 268.42;  171.542;  168.722;  194.649; 2.81994
 269.01;  171.644;  167.434;  194.558; 4.20991
 269.61;  180.908;  177.503;  204.840; 3.40513
 270.21;  184.334;  181.812;  207.045; 2.52228
 270.80;  202.201;  199.492;  224.414; 2.70955
 271.40;  164.050;  161.147;  183.775; 2.90358
 271.99;  198.796;  196.273;  218.373; 2.52238
 272.59;  157.571;  154.755;  177.199; 2.81651
 273.19;  167.733;  164.093;  186.254; 3.63989
 273.78;  155.767;  153.743;  175.177; 2.02464
 274.38;  169.020;  166.434;  193.021; 2.58579
 274.97;  179.512;  176.672;  212.682; 2.83921
 275.57;  179.345;  175.871;  215.124; 3.47429
 276.17;  151.209;  148.295;  175.473; 2.91385
 276.76;  179.413;  176.866;  200.892; 2.54690
 277.36;  175.945;  173.676;  195.657; 2.26875
 277.95;  182.134;  179.146;  202.104; 2.98826
 278.55;  164.960;  162.300;  183.571; 2.65947
 279.14;  181.930;  178.438;  204.050; 3.49206
 279.74;  180.957;  178.094;  211.006; 2.86334
 280.34;  165.838;  162.363;  207.562; 3.47520
 280.93;  203.244;  198.461;  243.101; 4.78310
 281.53;  158.642;  156.163;  204.471; 2.47895
 282.12;  183.228;  180.150;  242.247; 3.07866
 282.72;  174.307;  171.170;  237.668; 3.13624
 283.31;  181.963;  179.852;  225.194; 2.11168
 283.91;  162.356;  159.820;  189.204; 2.53547
 284.50;  190.668;  187.279;  209.412; 3.38934
 285.10;  200.197;  196.633;  220.160; 3.56416
 285.69;  161.650;  158.080;  181.279; 3.56985
 286.29;  186.579;  182.021;  205.333; 4.55774
 286.89;  174.183;  170.133;  193.509; 4.04982
 287.48;  180.085;  176.205;  198.821; 3.88003
 288.08;  195.036;  193.365;  213.941; 1.67114
 288.67;  176.701;  173.346;  211.533; 3.35554
 289.27;  176.083;  173.528;  238.460; 2.55526
 289.86;  174.910;  172.028;  224.048; 2.88145
 290.46;  159.765;  156.650;  182.953; 3.11412
 291.05;  174.392;  170.962;  190.854; 3.43021
 291.65;  170.123;  166.434;  186.464; 3.68868
 292.24;  194.757;  191.459;  217.061; 3.29830
 292.84;  178.820;  175.456;  198.640; 3.36464
 293.43;  185.749;  181.351;  201.754; 4.39839
 294.03;  181.346;  178.215;  197.677; 3.13084
 294.62;  188.956;  185.189;  205.562; 3.76644
 295.22;  168.962;  165.583;  187.902; 3.37874
 295.81;  182.850;  179.539;  227.659; 3.31083
 296.41;  172.513;  169.223;  618.639; 3.29056
 297.00;  186.663;  184.150;  879.669; 2.51324
 297.60;  175.836;  173.706;  448.744; 2.13002
 298.19;  181.925;  178.614;  234.456; 3.31036
 298.78;  178.362;  174.864;  208.659; 3.49743
 299.38;  164.858;  161.756;  184.146; 3.10254
 299.97;  191.576;  188.514;  207.510; 3.06221
 300.57;  178.722;  176.677;  193.837; 2.04442
 301.16;  137.293;  133.748;  152.734; 3.54471
 301.76;  176.320;  172.015;  237.006; 4.30454
 302.35;  177.377;  173.885;  322.268; 3.49266
 302.95;  195.235;  191.841;  300.113; 3.39468
 303.54;  154.228;  151.624;  188.905; 2.60380
 304.14;  159.330;  156.602;  182.352; 2.72801
 304.73;  191.375;  188.430;  213.586; 2.94571
 305.32;  182.355;  178.778;  200.159; 3.57670
 305.92;  161.688;  158.019;  180.386; 3.66863
 306.51;  157.552;  153.813;  174.896; 3.73850
 307.11;  176.312;  173.442;  194.701; 2.86977
 307.70;  156.225;  153.785;  174.665; 2.43934
 308.29;  157.849;  155.230;  177.264; 2.61847
 308.89;  166.945;  163.670;  185.946; 3.27567
 309.48;  127.567;  124.929;  149.281; 2.63835
 310.08;  166.476;  164.415;  192.005; 2.06133
 310.67;  167.385;  164.152;  194.927; 3.23364
 311.27;  152.845;  150.525;  202.344; 2.31932
 311.86;  159.537;  156.204;  434.649; 3.33325
 312.45;  163.623;  162.050; 1292.883; 1.57284
 313.05;  175.364;  172.450; 2220.983; 2.91386
 313.64;  169.614;  167.082; 1904.856; 2.53205
 314.23;  158.996;  156.245;  905.625; 2.75075
 314.83;  183.086;  180.583;  437.262; 2.50304
 315.42;  153.523;  150.195;  324.042; 3.32830
 316.02;  157.093;  155.471;  288.107; 1.62268
 316.61;  152.515;  148.681;  258.543; 3.83312
 317.20;  165.508;  163.095;  253.209; 2.41304
 317.80;  158.327;  155.435;  232.493; 2.89254
 318.39;  163.848;  159.932;  233.203; 3.91530
 318.98;  194.015;  190.871;  247.328; 3.14461
 319.58;  169.693;  165.811;  216.003; 3.88259
 320.17;  167.218;  165.908;  213.990; 1.30944
 320.76;  168.233;  165.569;  212.286; 2.66425
 321.36;  169.944;  165.360;  202.238; 4.58389
 321.95;  166.910;  163.546;  195.718; 3.36396
 322.55;  185.825;  182.524;  213.062; 3.30086
 323.14;  151.321;  147.977;  181.970; 3.34468
 323.73;  154.220;  151.773;  184.904; 2.44703
 324.33;  175.203;  171.757;  201.519; 3.44566
 324.92;  169.518;  166.605;  192.560; 2.91337
 325.51;  166.021;  163.988;  187.946; 2.03223
 326.10;  162.291;  158.567;  181.914; 3.72357
 326.70;  174.003;  170.823;  193.516; 3.17946
 327.29;  168.685;  165.754;  187.224; 2.93042
 327.88;  164.825;  160.484;  182.818; 4.34041
 328.48;  175.166;  172.900;  198.026; 2.26611
 329.07;  179.423;  176.931;  199.266; 2.49237
 329.66;  170.687;  167.338;  189.404; 3.34936
 330.26;  173.661;  170.315;  192.723; 3.34580
 330.85;  177.706;  175.245;  195.784; 2.46129
 331.44;  174.511;  171.748;  189.246; 2.76290
 332.04;  176.383;  173.970;  189.683; 2.41291
 332.63;  164.200;  160.135;  174.903; 4.06505
 333.22;  175.428;  172.764;  195.090; 2.66360
 333.81;  180.424;  178.451;  235.574; 1.97304
 334.41;  180.471;  176.567;  249.291; 3.90342
 335.00;  190.775;  187.943;  222.102; 2.83200
 335.59;  175.667;  171.635;  182.714; 4.03246
 336.18;  185.708;  183.361;  190.339; 2.34666
 336.78;  164.116;  162.601;  169.251; 1.51413
 337.37;  169.844;  167.347;  174.332; 2.49669
 337.96;  227.533;  223.507;  229.099; 4.02626
 338.55;  198.056;  194.528;  200.760; 3.52777
 339.15;  185.087;  182.290;  187.809; 2.79657
 339.74;  173.262;  170.423;  176.051; 2.83860
 340.33;  169.500;  166.761;  172.264; 2.73879
 340.92;  183.170;  179.833;  185.726; 3.33773
 341.52;  176.338;  174.017;  179.138; 2.32158
 342.11;  173.240;  170.075;  175.982; 3.16430
 342.70;  159.392;  157.067;  162.731; 2.32566
 343.29;  176.633;  174.449;  180.213; 2.18346
 343.89;  163.629;  160.703;  166.492; 2.92617
 344.48;  177.640;  174.727;  181.187; 2.91317
 345.07;  155.016;  151.632;  158.639; 3.38454
 345.66;  183.844;  180.273;  186.801; 3.57107
 346.25;  168.726;  166.511;  171.893; 2.21479
 346.85;  181.199;  177.788;  184.557; 3.41161
 347.44;  160.076;  156.673;  164.301; 3.40237
 348.03;  169.007;  165.808;  173.428; 3.19849
 348.62;  188.396;  185.926;  191.544; 2.46953
 349.21;  164.535;  161.691;  170.085; 2.84396
 349.81;  175.813;  172.419;  180.710; 3.39350
 350.40;  162.766;  159.988;  168.015; 2.77794
 350.99;  158.412;  155.664;  164.370; 2.74806
 351.58;  168.293;  164.716;  175.213; 3.57707
 352.17;  143.722;  141.008;  150.727; 2.71366
 352.77;  167.754;  165.438;  175.698; 2.31663
 353.36;  174.695;  172.920;  184.777; 1.77476
 353.95;  176.221;  173.301;  183.532; 2.92008
 354.54;  156.410;  153.863;  164.695; 2.54769
 355.13;  174.994;  170.783;  185.178; 4.21092
 355.72;  178.040;  174.317;  189.178; 3.72345
 356.32;  167.474;  164.231;  179.394; 3.24332
 356.91;  186.376;  183.800;  198.581; 2.57633
 357.50;  169.821;  166.814;  181.332; 3.00769
 358.09;  162.827;  161.077;  175.948; 1.75046
 358.68;  168.786;  164.655;  182.453; 4.13034
 359.27;  178.777;  175.654;  193.575; 3.12241
 359.86;  183.499;  181.288;  201.175; 2.21096
 360.46;  156.753;  154.076;  174.085; 2.67761
 361.05;  171.608;  168.579;  190.340; 3.02964
 361.64;  165.368;  162.541;  185.086; 2.82768
 362.23;  170.665;  166.555;  194.651; 4.10996
 362.82;  163.145;  160.226;  192.502; 2.91845
 363.41;  168.053;  164.669;  207.875; 3.38399
 364.00;  176.653;  172.156;  353.780; 4.49650
 364.59;  181.708;  178.716; 1486.313; 2.99186
 365.19;  160.684;  158.199; 2522.935; 2.48523
 365.78;  181.383;  179.113; 1660.725; 2.27020
 366.37;  167.635;  164.869;  731.492; 2.76640
 366.96;  169.487;  165.324;  397.552; 4.16227
 367.55;  180.553;  178.115;  244.913; 2.43834
 368.14;  177.533;  173.306;  214.336; 4.22613
 368.73;  184.494;  183.335;  218.072; 1.15912
 369.32;  188.648;  185.203;  217.455; 3.44483
 369.91;  181.252;  179.000;  209.941; 2.25130
 370.50;  190.269;  187.978;  219.302; 2.29056
 371.09;  173.221;  170.219;  202.742; 3.00169
 371.69;  167.723;  165.371;  198.902; 2.35112
 372.28;  163.681;  161.032;  193.164; 2.64936
 372.87;  197.476;  194.495;  229.204; 2.98082
 373.46;  166.685;  162.786;  198.627; 3.89920
 374.05;  185.616;  182.726;  218.578; 2.88949
 374.64;  185.426;  182.429;  220.031; 2.99770
 375.23;  176.107;  173.409;  210.680; 2.69803
 375.82;  194.993;  191.877;  231.757; 3.11592
 376.41;  190.457;  187.002;  227.311; 3.45482
 377.00;  189.185;  186.060;  229.443; 3.12466
 377.59;  181.460;  176.931;  220.777; 4.52933
 378.18;  181.698;  179.365;  222.855; 2.33247
 378.77;  179.307;  177.506;  221.661; 1.80082
 379.36;  171.503;  167.725;  215.856; 3.77794
 379.95;  191.611;  188.814;  236.560; 2.79707
 380.54;  184.008;  180.542;  233.047; 3.46557
 381.13;  197.262;  194.423;  245.947; 2.83950
 381.72;  164.964;  162.089;  217.145; 2.87502
 382.31;  198.237;  195.072;  250.810; 3.16503
 382.90;  180.360;  178.791;  235.621; 1.56929
 383.49;  227.310;  223.253;  281.132; 4.05730
 384.08;  168.854;  166.195;  226.846; 2.65886
 384.67;  194.304;  191.906;  252.682; 2.39839
 385.26;  189.117;  185.799;  250.489; 3.31841
 385.85;  172.379;  169.888;  233.966; 2.49113
 386.44;  186.422;  183.949;  250.247; 2.47351
 387.03;  197.194;  194.145;  264.478; 3.04882
 387.62;  161.361;  158.870;  228.198; 2.49112
 388.21;  195.536;  192.293;  263.020; 3.24326
 388.80;  177.329;  174.378;  246.997; 2.95055
 389.39;  181.534;  178.567;  253.348; 2.96640
 389.98;  180.539;  177.961;  255.753; 2.57797
 390.57;  178.881;  175.013;  255.437; 3.86722
 391.16;  187.005;  183.196;  261.714; 3.80826
 391.75;  195.763;  192.996;  269.716; 2.76767
 392.34;  196.357;  193.226;  270.151; 3.13019
 392.93;  190.509;  188.718;  268.909; 1.79077
 393.52;  167.063;  163.534;  245.097; 3.52956
 394.11;  170.248;  167.674;  250.044; 2.57396
 394.70;  208.806;  207.232;  289.266; 1.57431
 395.29;  190.600;  187.369;  271.052; 3.23097
 395.88;  177.857;  174.055;  257.652; 3.80150
 396.47;  194.011;  190.842;  273.788; 3.16946
 397.05;  178.343;  176.117;  258.016; 2.22640
 397.64;  191.114;  187.679;  272.155; 3.43487
 398.23;  182.793;  180.032;  265.215; 2.76053
 398.82;  184.835;  181.963;  265.767; 2.87153
 399.41;  173.943;  170.240;  255.098; 3.70364
 400.00;  169.939;  168.286;  252.393; 1.65281
 400.59;  190.656;  189.395;  273.690; 1.26081
 401.18;  186.822;  182.974;  269.091; 3.84717
 401.77;  178.485;  176.364;  262.585; 2.12175
 402.36;  192.316;  188.854;  281.319; 3.46254
 402.95;  175.945;  174.099;  273.673; 1.84585
 403.53;  193.269;  190.108;  388.007; 3.16144
 404.12;  178.154;  175.734; 1465.115; 2.41976
 404.71;  176.902;  173.658; 2583.144; 3.24386
 405.30;  157.786;  153.799; 1466.161; 3.98624
 405.89;  172.080;  169.976;  421.434; 2.10430
 406.48;  193.445;  190.485;  292.922; 2.95995
 407.07;  165.258;  161.832;  287.548; 3.42564
 407.66;  188.861;  186.426;  386.657; 2.43423
 408.24;  188.678;  185.980;  354.475; 2.69853
 408.83;  190.411;  188.277;  276.672; 2.13391
 409.42;  167.331;  163.692;  233.595; 3.63837
 410.01;  182.432;  179.442;  246.646; 2.99066
 410.60;  193.200;  190.751;  254.574; 2.44865
 411.19;  162.565;  158.964;  222.268; 3.60110
 411.78;  163.740;  159.580;  221.798; 4.16035
 412.36;  168.403;  166.294;  225.619; 2.10894
 412.95;  176.762;  174.622;  232.970; 2.14074
 413.54;  198.955;  196.434;  253.428; 2.52120
 414.13;  191.714;  188.494;  245.348; 3.22056
 414.72;  174.818;  170.550;  226.540; 4.26784
 415.31;  174.481;  172.091;  228.778; 2.38974
 415.89;  157.197;  154.371;  208.684; 2.82644
 416.48;  176.158;  172.903;  225.226; 3.25512
 417.07;  166.357;  163.674;  214.352; 2.68267
 417.66;  198.005;  193.063;  243.116; 4.94194
 418.25;  182.034;  179.507;  226.683; 2.52719
 418.83;  177.569;  174.184;  222.017; 3.38561
 419.42;  183.144;  178.844;  226.599; 4.30008
 420.01;  184.290;  182.921;  228.959; 1.36912
 420.60;  184.829;  179.992;  225.851; 4.83721
 421.19;  206.498;  202.697;  246.419; 3.80105
 421.77;  163.103;  159.119;  202.087; 3.98438
 422.36;  192.273;  190.120;  230.957; 2.15367
 422.95;  181.463;  177.825;  218.066; 3.63774
 423.54;  200.302;  196.331;  236.024; 3.97142
 424.12;  190.073;  186.228;  225.095; 3.84475
 424.71;  191.063;  186.793;  224.132; 4.26982
 425.30;  197.886;  191.971;  231.290; 5.91504
 425.89;  194.997;  191.839;  228.544; 3.15857
 426.48;  187.118;  182.641;  220.262; 4.47751
 427.06;  180.359;  176.712;  212.383; 3.64716
 427.65;  195.074;  190.214;  225.779; 4.85944
 428.24;  174.150;  170.157;  202.939; 3.99289
 428.83;  183.842;  179.758;  213.653; 4.08377
 429.41;  195.346;  191.093;  224.759; 4.25227
 430.00;  183.241;  177.556;  211.652; 5.68537
 430.59;  217.159;  210.549;  246.183; 6.60974
 431.17;  200.159;  195.419;  229.574; 4.74057
 431.76;  200.415;  194.669;  230.916; 5.74527
 432.35;  209.218;  203.964;  241.614; 5.25430
 432.94;  203.586;  199.092;  244.729; 4.49414
 433.52;  202.670;  197.763;  258.083; 4.90739
 434.11;  209.432;  204.189;  298.172; 5.24333
 434.70;  199.459;  193.774;  485.671; 5.68461
 435.29;  214.421;  208.933; 2805.055; 5.48802
 435.87;  207.161;  202.933; 5150.592; 4.22833
 436.46;  211.505;  206.346; 2722.762; 5.15885
 437.05;  184.280;  179.373;  540.545; 4.90683
 437.63;  203.018;  197.695;  274.666; 5.32301
 438.22;  206.855;  200.998;  248.964; 5.85681
 438.81;  218.617;  213.821;  253.576; 4.79570
 439.39;  192.224;  186.400;  219.764; 5.82396
 439.98;  208.107;  202.183;  232.521; 5.92403
 440.57;  204.935;  197.256;  225.617; 7.67923
 441.15;  207.303;  193.395;  219.055;13.90756
 441.74;  227.258;  199.184;  220.966;28.07382
 442.33;  251.654;  206.115;  227.628;45.53970
 442.91;  268.306;  200.382;  222.203;67.92379
 443.50;  275.292;  192.745;  212.909;82.54681
 444.09;  275.716;  182.183;  202.260;93.53314
 444.67;  312.099;  216.214;  236.318;95.88503
 445.26;  287.207;  195.304;  213.821;91.90272
 445.85;  294.522;  211.454;  229.093;83.06781
 446.43;  270.273;  194.202;  213.253;76.07030
 447.02;  258.782;  195.692;  213.971;63.08987
 447.61;  225.959;  176.504;  193.601;49.45557
 448.19;  234.188;  202.091;  218.236;32.09756
 448.78;  214.685;  192.709;  208.027;21.97536
 449.36;  208.930;  196.322;  212.489;12.60756
 449.95;  198.278;  189.809;  205.296; 8.46969
 450.54;  193.367;  186.291;  202.068; 7.07616
 451.12;  213.907;  209.062;  224.440; 4.84479
 451.71;  179.624;  174.470;  190.035; 5.15441
 452.30;  205.144;  200.360;  214.755; 4.78351
 452.88;  194.339;  189.679;  204.263; 4.65992
 453.47;  178.141;  173.936;  188.234; 4.20503
 454.05;  187.210;  183.852;  198.324; 3.35831
 454.64;  199.290;  195.260;  209.186; 4.03032
 455.22;  214.164;  209.396;  222.695; 4.76841
 455.81;  177.090;  173.967;  186.806; 3.12319
 456.40;  213.614;  210.083;  221.415; 3.53016
 456.98;  188.694;  183.685;  196.557; 5.00964
 457.57;  207.041;  201.147;  214.096; 5.89438
 458.15;  213.306;  207.769;  220.194; 5.53686
 458.74;  198.543;  195.236;  205.667; 3.30681
 459.33;  203.542;  200.345;  211.567; 3.19686
 459.91;  202.625;  199.537;  209.606; 3.08800
 460.50;  202.959;  199.927;  210.124; 3.03189
 461.08;  195.070;  191.316;  201.549; 3.75351
 461.67;  198.414;  193.380;  203.915; 5.03454
 462.25;  201.810;  198.471;  208.184; 3.33884
 462.84;  170.660;  168.095;  177.443; 2.56498
 463.42;  189.476;  186.336;  197.335; 3.13920
 464.01;  192.278;  187.394;  200.154; 4.88394
 464.59;  202.487;  199.975;  209.773; 2.51223
 465.18;  190.105;  187.276;  196.631; 2.82899
 465.76;  196.562;  192.561;  202.098; 4.00087
 466.35;  196.477;  192.762;  202.134; 3.71440
 466.94;  206.596;  202.229;  211.128; 4.36731
 467.52;  214.633;  211.881;  220.402; 2.75160
 468.11;  180.151;  177.336;  185.451; 2.81468
 468.69;  173.697;  170.165;  178.777; 3.53145
 469.28;  165.284;  161.175;  169.570; 4.10878
 469.86;  200.658;  197.681;  204.795; 2.97740
 470.45;  194.826;  191.272;  198.769; 3.55427
 471.03;  175.723;  172.248;  179.928; 3.47541
 471.62;  186.814;  183.444;  189.847; 3.36917
 472.20;  190.308;  186.086;  194.726; 4.22177
 472.79;  225.527;  222.892;  228.835; 2.63460
 473.37;  189.254;  186.459;  192.908; 2.79485
 473.95;  187.958;  183.877;  192.703; 4.08098
 474.54;  148.712;  145.957;  152.162; 2.75470
 475.12;  215.612;  211.149;  218.210; 4.46354
 475.71;  195.681;  192.610;  199.441; 3.07030
 476.29;  200.294;  196.363;  203.200; 3.93074
 476.88;  175.535;  172.972;  178.540; 2.56264
 477.46;  176.372;  174.791;  179.356; 1.58150
 478.05;  183.856;  180.951;  186.478; 2.90529
 478.63;  187.676;  185.430;  191.034; 2.24584
 479.22;  168.544;  166.175;  170.278; 2.36929
 479.80;  194.036;  189.907;  195.363; 4.12894
 480.38;  188.801;  185.840;  191.085; 2.96138
 480.97;  172.768;  169.570;  174.897; 3.19871
 481.55;  182.778;  180.721;  186.205; 2.05723
 482.14;  206.479;  202.878;  207.401; 3.60101
 482.72;  179.523;  176.124;  182.124; 3.39877
 483.31;  176.971;  174.403;  177.897; 2.56781
 483.89;  181.562;  178.503;  182.403; 3.05951
 484.47;  181.243;  178.466;  182.354; 2.77680
 485.06;  171.891;  168.540;  172.672; 3.35104
 485.64;  194.872;  192.992;  195.664; 1.88053
 486.23;  198.774;  197.050;  200.398; 1.72397
 486.81;  193.516;  189.918;  194.241; 3.59804
 487.39;  162.892;  160.088;  164.354; 2.80310
 487.98;  175.390;  172.594;  176.507; 2.79671
 488.56;  205.052;  201.878;  205.349; 3.17403
 489.15;  174.604;  170.912;  176.203; 3.69247
 489.73;  178.535;  175.128;  179.606; 3.40744
 490.31;  177.699;  174.835;  179.772; 2.86386
 490.90;  178.196;  175.154;  182.159; 3.04206
 491.48;  182.022;  178.744;  192.437; 3.27840
 492.06;  195.542;  192.297;  201.679; 3.24416
 492.65;  166.939;  163.759;  168.469; 3.18015
 493.23;  154.801;  151.642;  155.351; 3.15834
 493.82;  188.910;  185.341;  188.929; 3.56934
 494.40;  154.713;  151.904;  154.592; 2.80957
 494.98;  173.511;  170.126;  173.304; 3.38483
 495.57;  153.794;  151.372;  154.804; 2.42175
 496.15;  151.742;  147.929;  152.224; 3.81239
 496.73;  166.203;  162.645;  165.567; 3.55873
 497.32;  187.565;  183.062;  185.987; 4.50320
 497.90;  185.011;  182.221;  184.261; 2.79051
 498.48;  162.841;  158.959;  161.229; 3.88111
 499.07;  167.880;  164.865;  167.574; 3.01492
 499.65;  185.712;  182.334;  185.883; 3.37749
 500.23;  150.795;  148.420;  150.126; 2.37437
 500.82;  162.877;  161.391;  163.825; 1.48623
 501.40;  166.591;  163.786;  166.053; 2.80476
 501.98;  180.707;  176.743;  178.435; 3.96469
 502.56;  193.202;  190.659;  192.690; 2.54339
 503.15;  192.751;  189.957;  191.639; 2.79346
 503.73;  176.749;  174.199;  175.410; 2.54982
 504.31;  179.877;  176.273;  178.659; 3.60365
 504.90;  186.600;  183.849;  186.738; 2.75045
 505.48;  200.357;  197.861;  199.199; 2.49592
 506.06;  185.173;  182.214;  184.710; 2.95812
 506.64;  170.818;  167.755;  170.026; 3.06364
 507.23;  177.757;  174.493;  176.401; 3.26392
 507.81;  189.597;  185.624;  188.977; 3.97280
 508.39;  177.103;  174.552;  176.174; 2.55140
 508.97;  185.736;  182.149;  185.047; 3.58647
 509.56;  196.004;  193.061;  194.375; 2.94344
 510.14;  161.460;  158.441;  161.241; 3.01898
 510.72;  178.237;  176.314;  177.478; 1.92262
 511.30;  189.094;  185.663;  186.041; 3.43103
 511.89;  186.659;  183.962;  185.565; 2.69692
 512.47;  181.464;  178.887;  181.031; 2.57740
 513.05;  177.707;  174.809;  177.585; 2.89765
 513.63;  179.057;  175.330;  177.868; 3.72697
 514.22;  190.955;  186.419;  189.266; 4.53656
 514.80;  188.439;  187.149;  188.139; 1.28955
 515.38;  179.710;  176.359;  179.039; 3.35079
 515.96;  201.855;  198.646;  200.259; 3.20953
 516.55;  173.823;  171.662;  172.391; 2.16136
 517.13;  184.707;  181.301;  186.021; 3.40595
 517.71;  169.974;  167.765;  169.247; 2.20842
 518.29;  171.383;  166.993;  170.914; 4.39065
 518.87;  181.819;  180.043;  182.674; 1.77676
 519.46;  175.304;  171.588;  174.753; 3.71612
 520.04;  178.179;  174.477;  177.625; 3.70183
 520.62;  168.050;  165.577;  166.467; 2.47335
 521.20;  164.929;  161.544;  162.686; 3.38507
 521.78;  180.301;  177.077;  180.553; 3.22390
 522.36;  176.578;  173.507;  175.982; 3.07062
 522.95;  176.986;  173.525;  177.197; 3.46106
 523.53;  164.980;  160.559;  164.834; 4.42174
 524.11;  176.496;  172.830;  176.760; 3.66608
 524.69;  170.190;  168.486;  170.408; 1.70432
 525.27;  173.873;  170.764;  173.546; 3.10919
 525.85;  183.764;  179.811;  182.985; 3.95279
 526.44;  183.226;  180.926;  182.487; 2.29912
 527.02;  191.968;  190.051;  192.145; 1.91636
 527.60;  186.785;  182.817;  184.817; 3.96802
 528.18;  168.343;  164.163;  168.352; 4.18027
 528.76;  196.562;  195.064;  197.754; 1.49797
 529.34;  182.451;  178.814;  182.904; 3.63633
 529.92;  199.678;  195.851;  199.070; 3.82667
 530.51;  189.177;  185.190;  189.082; 3.98698
 531.09;  180.487;  177.524;  180.559; 2.96260
 531.67;  174.841;  171.716;  176.286; 3.12462
 532.25;  197.251;  193.898;  198.863; 3.35287
 532.83;  197.685;  193.453;  200.968; 4.23210
 533.41;  173.647;  170.702;  175.342; 2.94444
 533.99;  197.824;  194.779;  200.241; 3.04456
 534.57;  217.085;  214.377;  219.337; 2.70842
 535.15;  179.057;  175.647;  181.714; 3.41062
 535.74;  173.247;  169.958;  177.698; 3.28885
 536.32;  178.002;  176.294;  183.533; 1.70799
 536.90;  170.541;  168.087;  173.158; 2.45409
 537.48;  186.417;  181.900;  186.764; 4.51683
 538.06;  202.506;  199.959;  204.852; 2.54627
 538.64;  188.926;  185.566;  193.302; 3.36006
 539.22;  181.093;  177.351;  184.206; 3.74249
 539.80;  186.700;  183.048;  190.142; 3.65198
 540.38;  201.212;  198.265;  205.750; 2.94701
 540.96;  170.988;  167.682;  176.155; 3.30516
 541.54;  177.566;  173.804;  183.672; 3.76147
 542.12;  219.575;  216.864;  228.946; 2.71049
 542.70;  166.063;  161.903;  178.319; 4.16023
 543.28;  184.714;  182.019;  202.682; 2.69509
 543.86;  178.113;  174.277;  204.103; 3.83582
 544.44;  229.314;  226.892;  278.849; 2.42232
 545.02;  197.277;  194.464;  518.343; 2.81350
 545.61;  186.476;  183.184; 3429.565; 3.29170
 546.19;  190.217;  186.751; 4874.079; 3.46572
 546.77;  184.787;  181.234; 1764.281; 3.55309
 547.35;  216.460;  213.513;  398.729; 2.94706
 547.93;  192.154;  190.275;  238.837; 1.87971
 548.51;  195.409;  192.444;  217.970; 2.96477
 549.09;  202.643;  200.520;  218.477; 2.12255
 549.67;  202.807;  200.022;  211.654; 2.78473
 550.25;  185.154;  180.811;  191.700; 4.34304
 550.83;  207.634;  205.418;  213.583; 2.21606
 551.41;  194.534;  192.111;  198.861; 2.42326
 551.99;  193.464;  191.188;  196.932; 2.27575
 552.57;  193.750;  191.228;  197.915; 2.52205
 553.15;  212.574;  209.117;  214.893; 3.45751
 553.73;  173.256;  170.078;  174.930; 3.17745
 554.30;  204.312;  201.957;  206.191; 2.35502
 554.88;  189.986;  188.356;  191.836; 1.62949
 555.46;  199.528;  195.482;  201.328; 4.04650
 556.04;  192.942;  189.068;  193.265; 3.87330
 556.62;  214.774;  211.218;  215.762; 3.55599
 557.20;  178.520;  175.190;  178.369; 3.32949
 557.78;  199.734;  197.203;  201.259; 2.53139
 558.36;  214.174;  211.720;  213.174; 2.45383
 558.94;  212.096;  208.744;  212.481; 3.35183
 559.52;  184.233;  182.546;  185.274; 1.68619
 560.10;  200.454;  197.712;  200.758; 2.74190
 560.68;  199.391;  197.598;  200.698; 1.79283
 561.26;  220.306;  216.549;  221.469; 3.75678
 561.84;  178.476;  176.186;  179.169; 2.29063
 562.42;  194.337;  190.872;  194.921; 3.46475
 563.00;  200.102;  196.236;  200.683; 3.86562
 563.58;  197.477;  193.715;  197.730; 3.76200
 564.15;  194.928;  191.132;  196.425; 3.79544
 564.73;  201.896;  199.274;  203.546; 2.62199
 565.31;  213.337;  210.517;  214.694; 2.81930
 565.89;  178.749;  176.152;  180.168; 2.59646
 566.47;  191.224;  186.376;  190.334; 4.84824
 567.05;  210.089;  207.090;  209.801; 2.99855
 567.63;  193.134;  190.231;  193.745; 2.90332
 568.21;  185.419;  184.467;  188.234; 0.95140
 568.79;  210.660;  207.780;  211.859; 2.87975
 569.36;  234.480;  231.222;  236.033; 3.25764
 569.94;  189.520;  185.240;  190.086; 4.28027
 570.52;  208.039;  204.336;  208.876; 3.70286
 571.10;  155.429;  153.109;  157.098; 2.32013
 571.68;  198.517;  196.182;  199.348; 2.33514
 572.26;  205.603;  202.530;  206.805; 3.07243
 572.84;  210.091;  206.460;  213.302; 3.63173
 573.41;  188.384;  186.632;  191.510; 1.75246
 573.99;  231.039;  227.859;  234.484; 3.17996
 574.57;  193.445;  191.082;  198.005; 2.36299
 575.15;  226.522;  223.101;  233.762; 3.42136
 575.73;  210.695;  206.807;  238.659; 3.88781
 576.31;  206.201;  203.764;  581.907; 2.43632
 576.88;  182.296;  180.000;  993.686; 2.29586
 577.46;  191.738;  187.217;  632.249; 4.52135
 578.04;  186.146;  182.140;  314.338; 4.00653
 578.62;  184.550;  182.141;  838.586; 2.40876
 579.20;  190.362;  187.289; 1006.280; 3.07377
 579.78;  198.454;  195.108;  438.584; 3.34510
 580.35;  197.977;  194.661;  224.094; 3.31571
 580.93;  186.513;  183.319;  193.932; 3.19422
 581.51;  200.386;  197.904;  203.406; 2.48211
 582.09;  179.865;  177.021;  181.770; 2.84310
 582.67;  180.560;  178.717;  181.880; 1.84322
 583.24;  184.591;  181.913;  185.282; 2.67777
 583.82;  187.975;  184.170;  188.714; 3.80540
 584.40;  186.116;  183.018;  186.158; 3.09830
 584.98;  183.108;  180.437;  183.929; 2.67129
 585.55;  195.028;  191.740;  197.391; 3.28834
 586.13;  171.644;  168.560;  170.347; 3.08394
 586.71;  193.133;  189.825;  193.534; 3.30802
 587.29;  187.769;  183.159;  185.393; 4.60969
 587.86;  188.084;  185.415;  189.128; 2.66893
 588.44;  152.311;  148.676;  151.278; 3.63508
 589.02;  203.382;  199.453;  202.846; 3.92938
 589.60;  181.530;  178.239;  180.686; 3.29104
 590.17;  193.737;  190.163;  192.297; 3.57367
 590.75;  170.862;  167.953;  169.301; 2.90918
 591.33;  170.743;  167.885;  171.119; 2.85793
 591.91;  181.311;  177.390;  180.134; 3.92086
 592.48;  175.142;  171.850;  174.727; 3.29177
 593.06;  192.506;  189.411;  191.277; 3.09541
 593.64;  186.229;  184.429;  186.123; 1.80044
 594.21;  173.730;  170.349;  171.966; 3.38055
 594.79;  184.760;  182.273;  184.253; 2.48741
 595.37;  186.680;  185.500;  186.634; 1.18014
 595.95;  171.298;  167.131;  169.210; 4.16700
 596.52;  176.317;  173.512;  174.385; 2.80490
 597.10;  181.635;  180.359;  181.543; 1.27569
 597.68;  168.044;  164.216;  167.048; 3.82834
 598.25;  191.984;  188.818;  191.102; 3.16591
 598.83;  168.489;  166.330;  168.230; 2.15910
 599.41;  183.608;  182.100;  181.930; 1.50790
 599.98;  209.454;  206.795;  207.470; 2.65834
 600.56;  197.166;  194.319;  196.510; 2.84715
 601.14;  182.659;  181.172;  182.296; 1.48681
 601.71;  185.547;  183.589;  185.581; 1.95859
 602.29;  171.865;  169.419;  171.919; 2.44657
 602.87;  197.260;  194.769;  196.942; 2.49119
 603.44;  190.198;  187.254;  189.970; 2.94451
 604.02;  183.862;  180.861;  183.106; 3.00043
 604.60;  204.554;  200.630;  201.173; 3.92470
 605.17;  209.441;  207.202;  208.291; 2.23847
 605.75;  199.878;  196.203;  198.867; 3.67466
 606.33;  191.885;  188.326;  190.642; 3.55944
 606.90;  212.115;  208.154;  211.394; 3.96113
 607.48;  201.278;  197.860;  199.325; 3.41760
 608.05;  178.947;  176.407;  178.524; 2.54013
 608.63;  187.253;  183.413;  186.371; 3.83998
 609.21;  178.460;  175.125;  176.448; 3.33511
 609.78;  205.593;  202.864;  205.182; 2.72960
 610.36;  194.409;  192.154;  191.741; 2.25537
 610.93;  197.932;  195.185;  196.171; 2.74712
 611.51;  179.904;  177.196;  179.469; 2.70750
 612.09;  208.713;  205.436;  207.395; 3.27678
 612.66;  190.935;  188.704;  190.107; 2.23131
 613.24;  204.557;  201.654;  203.003; 2.90359
 613.81;  209.053;  205.772;  206.200; 3.28125
 614.39;  205.623;  200.987;  203.399; 4.63630
 614.96;  220.119;  217.772;  217.412; 2.34721
 615.54;  204.488;  200.136;  201.843; 4.35259
 616.12;  213.208;  208.747;  209.965; 4.46021
 616.69;  169.776;  167.104;  169.197; 2.67180
 617.27;  199.053;  195.313;  196.719; 3.73974
 617.84;  180.519;  176.420;  178.833; 4.09847
 618.42;  213.950;  212.021;  211.207; 1.92908
 618.99;  198.811;  196.354;  195.870; 2.45731
 619.57;  217.112;  213.618;  214.600; 3.49397
 620.14;  206.330;  203.450;  204.552; 2.87934
 620.72;  185.707;  183.029;  183.325; 2.67800
 621.30;  209.956;  206.396;  206.934; 3.55912
 621.87;  217.526;  214.650;  212.652; 2.87619
 622.45;  207.030;  204.469;  204.167; 2.56121
 623.02;  179.812;  177.509;  178.127; 2.30318
 623.60;  190.902;  186.830;  189.356; 4.07224
 624.17;  197.914;  193.902;  194.886; 4.01198
 624.75;  207.559;  205.391;  205.327; 2.16861
 625.32;  194.567;  191.394;  192.308; 3.17292
 625.90;  200.463;  197.282;  198.133; 3.18112
 626.47;  210.933;  208.475;  210.485; 2.45838
 627.05;  182.928;  180.684;  179.759; 2.24360
 627.62;  201.364;  196.974;  196.459; 4.39052
 628.20;  220.635;  218.835;  218.249; 1.79991
 628.77;  215.594;  212.549;  211.877; 3.04528
 629.34;  233.800;  230.323;  231.819; 3.47723
 629.92;  190.047;  187.731;  187.490; 2.31602
 630.49;  216.038;  212.216;  213.266; 3.82173
 631.07;  191.431;  188.351;  188.294; 3.07974
 631.64;  190.940;  186.963;  187.824; 3.97660
 632.22;  233.660;  230.101;  230.912; 3.55892
 632.79;  208.078;  204.962;  206.039; 3.11642
 633.37;  215.909;  212.244;  212.526; 3.66545
 633.94;  210.206;  206.734;  206.488; 3.47176
 634.52;  203.991;  200.579;  199.758; 3.41185
 635.09;  218.541;  214.711;  215.253; 3.83058
 635.66;  183.150;  180.185;  181.904; 2.96481
 636.24;  197.911;  194.244;  196.282; 3.66658
 636.81;  238.162;  235.976;  236.037; 2.18619
 637.39;  220.423;  219.078;  219.425; 1.34453
 637.96;  216.827;  214.702;  214.710; 2.12554
 638.54;  217.606;  213.006;  214.657; 4.60014
 639.11;  193.612;  190.482;  192.193; 3.13037
 639.68;  219.704;  216.255;  218.132; 3.44905
 640.26;  203.826;  199.975;  200.830; 3.85114
 640.83;  204.671;  201.630;  202.731; 3.04118
 641.41;  198.512;  195.500;  195.288; 3.01222
 641.98;  204.719;  201.296;  202.609; 3.42326
 642.55;  184.771;  181.592;  181.128; 3.17930
 643.13;  200.833;  197.802;  198.066; 3.03134
 643.70;  218.731;  215.956;  217.215; 2.77539
 644.27;  206.249;  203.148;  203.618; 3.10143
 644.85;  195.982;  193.782;  194.159; 2.20047
 645.42;  204.080;  199.487;  199.911; 4.59351
 645.99;  192.693;  189.177;  190.061; 3.51655
 646.57;  199.380;  195.252;  196.463; 4.12859
 647.14;  204.476;  201.563;  201.200; 2.91363
 647.72;  182.177;  179.554;  180.416; 2.62368
 648.29;  194.840;  191.996;  192.608; 2.84472
 648.86;  219.152;  216.634;  216.710; 2.51876
 649.44;  186.273;  183.829;  183.041; 2.44380
 650.01;  195.930;  193.153;  193.457; 2.77684
 650.58;  205.010;  201.539;  202.430; 3.47088
 651.16;  203.202;  200.184;  200.440; 3.01793
 651.73;  192.219;  188.469;  187.736; 3.74997
 652.30;  208.493;  204.414;  207.431; 4.07901
 652.87;  193.291;  190.593;  192.315; 2.69805
 653.45;  215.874;  212.123;  212.966; 3.75009
 654.02;  191.458;  185.976;  187.624; 5.48113
 654.59;  200.575;  196.795;  196.423; 3.77918
 655.17;  205.180;  201.212;  201.261; 3.96722
 655.74;  187.713;  185.868;  184.871; 1.84426
 656.31;  201.508;  197.586;  197.131; 3.92130
 656.89;  202.892;  199.322;  199.572; 3.56934
 657.46;  208.199;  205.252;  205.138; 2.94638
 658.03;  213.759;  211.349;  212.823; 2.40943
 658.60;  197.540;  193.805;  194.048; 3.73447
 659.18;  212.452;  208.100;  210.082; 4.35151
 659.75;  196.594;  193.374;  194.466; 3.21955
 660.32;  214.782;  212.133;  212.587; 2.64859
 660.89;  196.626;  192.428;  193.109; 4.19763
 661.47;  214.716;  212.311;  212.436; 2.40468
 662.04;  215.616;  212.624;  212.492; 2.99172
 662.61;  197.888;  193.858;  195.400; 4.02976
 663.18;  204.154;  201.294;  202.315; 2.85980
 663.76;  185.329;  182.413;  181.848; 2.91584
 664.33;  210.721;  207.452;  208.590; 3.26888
 664.90;  206.671;  202.553;  203.257; 4.11793
 665.47;  201.081;  197.111;  197.715; 3.96997
 666.05;  192.422;  189.982;  190.679; 2.44001
 666.62;  227.320;  224.362;  225.637; 2.95805
 667.19;  192.087;  189.526;  192.394; 2.56109
 667.76;  188.364;  185.401;  189.455; 2.96313
 668.33;  191.965;  187.268;  191.776; 4.69718
 668.91;  183.661;  180.791;  180.984; 2.87022
 669.48;  197.252;  194.144;  195.022; 3.10826
 670.05;  185.146;  180.894;  181.436; 4.25230
 670.62;  202.697;  200.281;  200.111; 2.41634
 671.19;  200.910;  198.511;  199.468; 2.39938
 671.76;  207.712;  203.866;  204.944; 3.84543
 672.34;  190.612;  186.975;  187.849; 3.63647
 672.91;  198.375;  195.368;  196.127; 3.00651
 673.48;  189.761;  186.802;  188.041; 2.95855
 674.05;  212.647;  209.573;  210.493; 3.07359
 674.62;  209.739;  207.087;  207.026; 2.65163
 675.19;  201.179;  197.948;  199.583; 3.23068
 675.77;  204.421;  201.447;  203.236; 2.97372
 676.34;  178.498;  175.769;  176.251; 2.72876
 676.91;  194.968;  191.238;  192.447; 3.72980
 677.48;  198.360;  196.391;  196.000; 1.96884
 678.05;  195.969;  192.746;  194.424; 3.22288
 678.62;  208.146;  204.736;  206.241; 3.40993
 679.19;  201.800;  198.563;  199.488; 3.23697
 679.77;  194.913;  190.283;  191.219; 4.63001
 680.34;  162.983;  160.541;  160.329; 2.44205
 680.91;  192.184;  188.648;  189.018; 3.53609
 681.48;  195.185;  191.487;  192.089; 3.69813
 682.05;  200.373;  197.339;  198.306; 3.03418
 682.62;  171.270;  168.150;  167.647; 3.12022
 683.19;  189.549;  185.438;  187.455; 4.11126
 683.76;  197.881;  195.381;  195.830; 2.50030
 684.33;  201.434;  197.338;  199.173; 4.09634
 684.90;  179.693;  176.698;  176.952; 2.99538
 685.48;  181.445;  178.017;  180.005; 3.42842
 686.05;  178.480;  175.510;  177.615; 2.97047
 686.62;  197.796;  194.606;  197.183; 3.19051
 687.19;  178.707;  174.969;  176.679; 3.73855
 687.76;  188.709;  185.914;  187.707; 2.79559
 688.33;  192.707;  189.154;  190.216; 3.55363
 688.90;  190.096;  186.846;  187.084; 3.25067
 689.47;  151.676;  148.416;  148.484; 3.26072
 690.04;  177.659;  174.738;  177.908; 2.92076
 690.61;  186.233;  182.567;  191.835; 3.66580
 691.18;  169.016;  166.696;  172.036; 2.31984
 691.75;  212.184;  208.024;  209.598; 4.15988
 692.32;  192.872;  189.873;  191.508; 2.99892
 692.89;  210.645;  207.457;  209.013; 3.18797
 693.46;  195.074;  191.251;  194.434; 3.82301
 694.03;  187.358;  184.158;  185.955; 3.20005
 694.60;  198.190;  195.104;  198.362; 3.08609
 695.17;  192.460;  188.694;  198.056; 3.76613
 695.74;  179.390;  176.725;  295.952; 2.66517
 696.31;  187.484;  184.744;  526.357; 2.74022
 696.88;  198.386;  194.622;  436.680; 3.76426
 697.45;  180.232;  177.704;  217.769; 2.52830
 698.02;  166.308;  163.792;  171.529; 2.51634
 698.59;  168.500;  165.358;  171.783; 3.14238
 699.16;  175.141;  171.238;  173.378; 3.90342
 699.73;  187.552;  184.024;  185.243; 3.52847
 700.30;  175.607;  172.336;  173.389; 3.27151
 700.87;  194.495;  191.384;  192.910; 3.11155
 701.44;  193.493;  189.353;  190.847; 4.14059
 702.01;  186.465;  183.724;  185.005; 2.74163
 702.58;  207.627;  206.278;  206.841; 1.34967
 703.15;  174.814;  170.817;  172.191; 3.99772
 703.72;  195.021;  192.032;  192.738; 2.98976
 704.29;  169.475;  165.421;  167.346; 4.05380
 704.86;  199.693;  197.423;  199.260; 2.26984
 705.43;  191.823;  189.620;  191.919; 2.20288
 706.00;  187.640;  185.232;  222.417; 2.40792
 706.57;  182.794;  179.068;  262.230; 3.72597
 707.14;  176.703;  173.284;  221.456; 3.41901
 707.70;  214.118;  210.068;  218.764; 4.05005
 708.27;  181.613;  178.088;  179.997; 3.52409
 708.84;  180.011;  176.225;  178.009; 3.78513
 709.41;  161.945;  159.275;  159.808; 2.66917
 709.98;  206.897;  203.382;  204.521; 3.51422
 710.55;  182.025;  178.573;  181.279; 3.45126
 711.12;  201.759;  197.937;  198.254; 3.82130
 711.69;  197.400;  194.577;  194.719; 2.82234
 712.26;  196.645;  194.317;  194.505; 2.32738
 712.83;  211.550;  209.515;  210.775; 2.03442
 713.39;  198.339;  194.495;  195.453; 3.84347
 713.96;  209.410;  205.268;  212.738; 4.14151
 714.53;  195.769;  192.113;  206.613; 3.65555
 715.10;  195.469;  192.089;  202.143; 3.37959
 715.67;  176.224;  173.571;  175.208; 2.65263
 716.24;  197.091;  193.501;  193.437; 3.58967
 716.81;  213.583;  211.803;  211.046; 1.77972
 717.37;  197.180;  194.800;  195.090; 2.37976
 717.94;  203.557;  201.338;  202.676; 2.21880
 718.51;  204.718;  202.490;  203.290; 2.22784
 719.08;  188.440;  184.744;  185.101; 3.69588
 719.65;  213.389;  211.737;  211.135; 1.65192
 720.22;  208.491;  206.163;  206.097; 2.32797
 720.78;  202.139;  199.915;  198.790; 2.22401
 721.35;  187.594;  185.004;  186.655; 2.59005
 721.92;  216.901;  213.502;  214.834; 3.39909
 722.49;  204.211;  201.629;  202.874; 2.58213
 723.06;  200.147;  196.995;  198.919; 3.15217
 723.63;  171.767;  168.261;  168.342; 3.50621
 724.19;  214.014;  210.584;  210.839; 3.43026
 724.76;  190.301;  187.411;  189.063; 2.89030
 725.33;  200.318;  197.897;  199.054; 2.42134
 725.90;  218.674;  216.085;  219.058; 2.58938
 726.46;  200.873;  199.064;  233.585; 1.80842
 727.03;  219.957;  216.827;  315.146; 3.12946
 727.60;  162.442;  158.577;  231.534; 3.86451
 728.17;  205.268;  201.250;  215.136; 4.01755
 728.74;  209.162;  207.677;  209.799; 1.48459
 729.30;  194.846;  190.703;  191.518; 4.14263
 729.87;  194.818;  189.602;  192.096; 5.21567
 730.44;  217.450;  214.480;  216.598; 2.96971
 731.01;  210.925;  206.154;  208.547; 4.77076
 731.57;  192.864;  188.769;  190.066; 4.09480
 732.14;  188.644;  185.238;  186.899; 3.40584
 732.71;  193.529;  189.504;  189.752; 4.02488
 733.28;  229.315;  225.996;  228.133; 3.31892
 733.84;  187.251;  184.066;  185.858; 3.18496
 734.41;  187.120;  183.478;  184.891; 3.64201
 734.98;  208.078;  205.839;  207.761; 2.23905
 735.54;  224.527;  220.476;  221.853; 4.05109
 736.11;  191.198;  188.486;  191.575; 2.71213
 736.68;  185.997;  181.556;  186.264; 4.44117
 737.25;  195.904;  192.285;  210.177; 3.61921
 737.81;  208.563;  204.735;  317.032; 3.82826
 738.38;  201.516;  197.338;  364.691; 4.17830
 738.95;  218.059;  214.190;  282.287; 3.86934
 739.51;  211.028;  207.651;  217.624; 3.37738
 740.08;  207.129;  203.803;  207.208; 3.32642
 740.65;  189.459;  186.757;  188.889; 2.70246
 741.21;  204.907;  201.619;  203.778; 3.28851
 741.78;  208.532;  205.043;  208.168; 3.48955
 742.35;  204.910;  202.635;  203.225; 2.27559
 742.91;  219.912;  218.064;  219.878; 1.84863
 743.48;  204.415;  202.020;  203.324; 2.39567
 744.05;  198.716;  194.598;  196.786; 4.11871
 744.61;  205.431;  202.621;  204.593; 2.80976
 745.18;  187.651;  184.489;  187.125; 3.16180
 745.75;  201.248;  198.902;  201.497; 2.34584
 746.31;  230.418;  227.117;  230.891; 3.30088
 746.88;  199.790;  197.463;  200.522; 2.32692
 747.44;  202.024;  196.948;  201.675; 5.07596
 748.01;  228.895;  225.727;  231.329; 3.16801
 748.58;  209.473;  206.459;  213.293; 3.01405
 749.14;  198.492;  195.320;  226.526; 3.17209
 749.71;  198.556;  194.992;  451.231; 3.56413
 750.28;  205.196;  200.796;  683.607; 4.40017
 750.84;  205.674;  203.385;  549.218; 2.28921
 751.41;  191.498;  188.430;  400.206; 3.06826
 751.97;  203.228;  199.507;  287.792; 3.72130
 752.54;  196.492;  193.296;  213.887; 3.19634
 753.11;  193.753;  190.444;  198.839; 3.30938
 753.67;  204.690;  200.677;  204.969; 4.01342
 754.24;  196.308;  192.725;  196.031; 3.58346
 754.80;  221.826;  218.439;  221.209; 3.38751
 755.37;  180.022;  177.462;  180.823; 2.56055
 755.93;  214.356;  212.676;  215.748; 1.68059
 756.50;  206.239;  202.908;  204.941; 3.33163
 757.07;  210.639;  208.584;  211.182; 2.05567
 757.63;  184.432;  181.690;  183.805; 2.74271
 758.20;  187.078;  183.849;  187.333; 3.22976
 758.76;  195.380;  192.298;  194.976; 3.08180
 759.33;  167.186;  163.928;  168.252; 3.25784
 759.89;  193.427;  191.178;  196.370; 2.24888
 760.46;  197.672;  193.816;  198.611; 3.85592
 761.02;  208.870;  206.116;  212.126; 2.75396
 761.59;  190.675;  188.496;  198.304; 2.17900
 762.15;  206.426;  204.001;  247.196; 2.42505
 762.72;  193.963;  191.263;  649.960; 2.69909
 763.28;  183.356;  179.637; 1239.594; 3.71813
 763.85;  198.646;  194.628;  891.355; 4.01717
 764.41;  201.654;  198.561;  332.429; 3.09221
 764.98;  206.570;  204.439;  229.754; 2.13025
 765.54;  205.961;  201.436;  213.852; 4.52430
 766.11;  200.600;  198.048;  202.867; 2.55134
 766.67;  177.730;  174.369;  178.359; 3.36038
 767.24;  203.805;  200.485;  202.687; 3.31942
 767.80;  191.110;  188.137;  191.715; 2.97246
 768.37;  189.346;  185.599;  189.443; 3.74650
 768.93;  189.013;  185.871;  189.093; 3.14155
 769.50;  199.683;  195.132;  198.465; 4.55059
 770.06;  188.810;  185.446;  190.397; 3.36363
 770.63;  194.051;  192.135;  199.082; 1.91567
 771.19;  192.251;  189.325;  227.151; 2.92571
 771.75;  179.740;  175.993;  467.412; 3.74675
 772.32;  182.719;  179.042;  655.670; 3.67680
 772.88;  198.024;  194.500;  430.088; 3.52384
 773.45;  188.980;  186.976;  224.071; 2.00388
 774.01;  192.792;  189.634;  198.828; 3.15792
 774.58;  189.750;  187.539;  194.013; 2.21096
 775.14;  210.142;  208.743;  209.763; 1.39900
 775.70;  209.608;  206.499;  210.502; 3.10905
 776.27;  202.419;  199.065;  201.405; 3.35409
 776.83;  205.379;  202.232;  204.461; 3.14713
 777.40;  183.526;  181.002;  181.585; 2.52417
 777.96;  185.599;  182.512;  183.867; 3.08721
 778.52;  210.232;  207.355;  207.743; 2.87725
 779.09;  204.548;  200.702;  201.800; 3.84630
 779.65;  205.292;  201.821;  203.406; 3.47134
 780.22;  190.194;  186.609;  187.576; 3.58538
 780.78;  218.257;  214.842;  214.658; 3.41442
 781.34;  216.667;  214.054;  214.646; 2.61246
 781.91;  194.018;  190.683;  191.584; 3.33450
 782.47;  235.639;  231.725;  232.910; 3.91355
 783.03;  214.005;  211.298;  211.398; 2.70659
 783.60;  193.081;  190.005;  191.427; 3.07563
 784.16;  222.063;  219.009;  220.687; 3.05367
 784.72;  193.857;  190.809;  193.537; 3.04771
 785.29;  203.610;  199.705;  201.212; 3.90475
 785.85;  222.657;  220.183;  220.478; 2.47380
 786.41;  207.800;  205.674;  206.244; 2.12584
 786.98;  199.865;  195.635;  197.510; 4.22988
 787.54;  222.025;  217.953;  218.860; 4.07192
 788.10;  197.647;  196.271;  196.332; 1.37596
 788.67;  210.636;  209.696;  210.754; 0.94000
 789.23;  200.726;  197.981;  198.879; 2.74505
 789.79;  214.345;  210.325;  213.134; 4.02009
 790.36;  194.495;  191.447;  191.785; 3.04813
 790.92;  207.844;  205.343;  206.587; 2.50117
 791.48;  193.587;  190.716;  193.516; 2.87121
 792.05;  218.468;  216.545;  218.837; 1.92325
 792.61;  204.867;  201.726;  203.583; 3.14130
 793.17;  212.995;  209.030;  215.509; 3.96534
 793.73;  214.281;  211.029;  244.626; 3.25238
 794.30;  211.910;  208.320;  356.072; 3.59042
 794.86;  223.711;  220.019;  393.666; 3.69246
 795.42;  203.771;  201.154;  263.159; 2.61750
 795.98;  204.278;  199.960;  211.893; 4.31855
 796.55;  194.399;  191.526;  195.486; 2.87359
 797.11;  212.683;  209.581;  212.302; 3.10263
 797.67;  244.282;  242.028;  245.084; 2.25467
 798.23;  184.533;  181.340;  184.555; 3.19371
 798.80;  217.983;  215.475;  218.281; 2.50775
 799.36;  220.601;  217.310;  232.696; 3.29079
 799.92;  213.370;  210.674;  310.328; 2.69584
 800.48;  219.351;  217.297;  413.728; 2.05388
 801.05;  215.391;  212.953;  422.721; 2.43792
 801.61;  214.105;  211.410;  353.586; 2.69496
 802.17;  204.900;  202.600;  244.980; 2.30000
 802.73;  220.559;  217.123;  224.876; 3.43604
 803.29;  186.982;  184.312;  188.525; 2.67009
 803.86;  217.830;  214.539;  216.753; 3.29113
 804.42;  220.857;  218.292;  221.554; 2.56517
 804.98;  236.601;  233.557;  235.995; 3.04421
 805.54;  221.352;  217.794;  220.379; 3.55825
 806.10;  218.593;  215.070;  216.959; 3.52329
 806.66;  250.367;  247.272;  249.895; 3.09534
 807.23;  225.094;  220.999;  223.658; 4.09538
 807.79;  217.588;  214.425;  216.850; 3.16342
 808.35;  228.046;  224.428;  227.824; 3.61846
 808.91;  207.036;  203.629;  212.987; 3.40750
 809.47;  197.580;  194.215;  264.386; 3.36554
 810.03;  210.834;  207.620;  392.351; 3.21459
 810.60;  238.714;  235.782;  507.373; 2.93263
 811.16;  202.691;  200.082;  629.834; 2.60967
 811.72;  239.430;  237.304;  583.026; 2.12671
 812.28;  211.548;  207.712;  305.465; 3.83675
 812.84;  230.530;  227.567;  245.167; 2.96279
 813.40;  242.184;  238.954;  247.112; 3.22984
 813.96;  229.937;  228.043;  235.064; 1.89388
 814.52;  229.455;  227.148;  230.727; 2.30692
 815.09;  217.700;  214.099;  217.536; 3.60096
 815.65;  232.625;  228.457;  230.944; 4.16800
 816.21;  223.942;  221.312;  222.389; 2.63004
 816.77;  227.877;  224.432;  225.660; 3.44409
 817.33;  225.474;  221.692;  222.182; 3.78113
 817.89;  221.775;  218.744;  219.820; 3.03017
 818.45;  254.479;  251.049;  252.643; 3.42921
 819.01;  231.689;  228.098;  231.281; 3.59025
 819.57;  228.241;  224.864;  224.944; 3.37629
 820.13;  226.104;  222.154;  224.373; 3.94934
 820.69;  244.406;  241.931;  243.814; 2.47438
 821.25;  221.935;  219.341;  220.494; 2.59342
 821.82;  213.995;  210.393;  212.805; 3.60146
 822.38;  232.591;  229.679;  231.349; 2.91150
 822.94;  234.549;  230.592;  232.561; 3.95654
 823.50;  229.896;  228.000;  228.708; 1.89559
 824.06;  230.187;  226.497;  230.499; 3.68963
 824.62;  221.419;  218.567;  223.250; 2.85167
 825.18;  254.090;  251.837;  282.566; 2.25271
 825.74;  213.131;  208.962;  403.395; 4.16875
 826.30;  213.822;  208.177;  526.098; 5.64479
 826.86;  216.442;  213.238;  384.641; 3.20384
 827.42;  234.369;  232.026;  267.421; 2.34288
 827.98;  238.201;  235.467;  242.654; 2.73392
 828.54;  226.132;  220.713;  226.714; 5.41896
 829.10;  216.625;  213.448;  216.639; 3.17700
 829.66;  237.111;  235.338;  237.048; 1.77304
 830.22;  221.193;  217.629;  218.789; 3.56409
 830.78;  208.675;  204.590;  205.779; 4.08513
 831.34;  223.214;  218.723;  221.566; 4.49117
 831.90;  234.763;  231.867;  232.594; 2.89621
 832.46;  223.208;  220.778;  222.131; 2.43025
 833.02;  196.094;  192.352;  193.142; 3.74229
 833.58;  229.973;  224.886;  226.969; 5.08734
 834.14;  220.184;  216.980;  217.512; 3.20438
 834.70;  230.523;  228.933;  228.005; 1.58942
 835.25;  198.782;  196.040;  196.137; 2.74146
 835.81;  208.083;  204.502;  206.325; 3.58050
 836.37;  219.386;  215.627;  216.196; 3.75854
 836.93;  232.180;  228.608;  229.202; 3.57158
 837.49;  227.312;  224.590;  224.375; 2.72163
 838.05;  202.478;  199.422;  201.486; 3.05567
 838.61;  212.021;  209.687;  213.059; 2.33371
 839.17;  209.522;  207.258;  211.516; 2.26375
 839.73;  220.240;  217.003;  251.805; 3.23679
 840.29;  227.633;  225.061;  351.164; 2.57183
 840.85;  205.894;  202.626;  347.146; 3.26788
 841.41;  217.784;  213.673;  322.252; 4.11092
 841.97;  217.000;  213.104;  411.688; 3.89596
 842.52;  216.119;  213.883;  414.539; 2.23600
 843.08;  202.872;  199.353;  272.665; 3.51904
 843.64;  208.907;  205.320;  219.877; 3.58708
 844.20;  217.906;  214.437;  219.792; 3.46913
 844.76;  227.861;  224.481;  227.489; 3.38017
 845.32;  184.692;  181.574;  182.083; 3.11821
 845.88;  213.460;  210.570;  212.597; 2.89025
 846.44;  223.882;  220.229;  221.439; 3.65329
 846.99;  234.060;  231.162;  234.014; 2.89833
 847.55;  213.508;  210.301;  211.176; 3.20738
 848.11;  184.522;  181.391;  184.253; 3.13142
 848.67;  211.707;  208.151;  209.677; 3.55646
 849.23;  189.314;  186.091;  187.354; 3.22350
 849.79;  209.535;  206.661;  207.754; 2.87454
 850.34;  218.012;  213.568;  217.249; 4.44458
 850.90;  188.655;  186.282;  198.598; 2.37363
 851.46;  226.040;  223.285;  284.448; 2.75567
 852.02;  225.562;  222.700;  310.051; 2.86271
 852.58;  184.299;  182.035;  226.479; 2.26375
 853.13;  204.831;  202.097;  212.880; 2.73379
 853.69;  208.527;  204.621;  207.591; 3.90583
 854.25;  243.308;  239.574;  240.958; 3.73388
 854.81;  204.340;  201.336;  201.292; 3.00392
 855.37;  206.037;  203.339;  203.110; 2.69796
 855.92;  228.332;  224.481;  225.933; 3.85100
 856.48;  207.290;  204.465;  204.808; 2.82504
 857.04;  227.858;  224.955;  224.937; 2.90308
 857.60;  225.040;  222.493;  221.691; 2.54713
 858.16;  220.671;  217.010;  217.639; 3.66117
 858.71;  232.416;  228.949;  227.251; 3.46721
 859.27;  212.549;  209.793;  210.295; 2.75625
 859.83;  213.125;  209.726;  211.887; 3.39929
 860.39;  210.721;  206.651;  207.988; 4.07033
 860.94;  211.644;  208.686;  208.898; 2.95838
 861.50;  204.741;  201.573;  202.645; 3.16842
 862.06;  219.472;  216.401;  216.264; 3.07146
 862.61;  218.166;  215.224;  216.371; 2.94250
 863.17;  189.570;  186.584;  187.515; 2.98654
 863.73;  226.106;  222.909;  223.272; 3.19758
 864.29;  214.443;  211.539;  211.240; 2.90463
 864.84;  221.570;  219.288;  219.672; 2.28267
 865.40;  221.701;  218.929;  219.038; 2.77271
 865.96;  206.605;  204.142;  208.804; 2.46375
 866.51;  212.936;  210.481;  222.897; 2.45479
 867.07;  223.004;  219.905;  228.737; 3.09883
 867.63;  237.131;  233.976;  236.493; 3.15488
 868.18;  232.625;  228.459;  229.520; 4.16592
 868.74;  232.673;  230.929;  230.043; 1.74396
 869.30;  216.630;  213.394;  213.752; 3.23600
 869.86;  204.065;  199.934;  201.508; 4.13104
 870.41;  240.709;  237.689;  237.917; 3.01908
 870.97;  212.276;  209.778;  209.444; 2.49713
 871.52;  215.277;  212.214;  212.542; 3.06217
 872.08;  236.140;  233.536;  235.584; 2.60321
 872.64;  221.021;  218.116;  218.988; 2.90425
 873.19;  197.683;  194.531;  195.874; 3.15129
 873.75;  211.858;  208.787;  209.072; 3.07033
 874.31;  206.385;  203.068;  203.565; 3.31638
 874.86;  228.282;  225.968;  226.270; 2.31338
 875.42;  240.133;  236.797;  237.359; 3.33537
 875.98;  220.438;  217.102;  218.238; 3.33538
 876.53;  219.979;  217.915;  218.441; 2.06338
 877.09;  238.876;  235.408;  237.172; 3.46738
 877.64;  222.937;  218.756;  219.847; 4.18038
 878.20;  219.430;  215.559;  217.135; 3.87037
 878.76;  232.364;  230.206;  230.433; 2.15738
 879.31;  193.723;  190.849;  191.037; 2.87338
 879.87;  227.086;  223.753;  225.200; 3.33238
 880.42;  221.137;  217.732;  218.426; 3.40437
 880.98;  209.855;  206.360;  206.335; 3.49437
 881.54;  244.587;  241.020;  239.657; 3.56638
 882.09;  218.506;  216.433;  217.616; 2.07238
 882.65;  236.921;  233.714;  233.592; 3.20638
 883.20;  231.097;  227.058;  227.445; 4.03838
 883.76;  232.373;  228.708;  229.491; 3.66438
 884.31;  226.189;  222.743;  222.772; 3.44538
 884.87;  256.243;  252.548;  252.670; 3.69438
 885.42;  218.042;  214.335;  214.634; 3.70638
 885.98;  206.376;  202.289;  203.171; 4.08638
 886.53;  225.192;  223.002;  221.606; 2.18937
 887.09;  237.431;  232.955;  233.277; 4.47538
 887.65;  227.635;  224.710;  227.075; 2.92438
 888.20;  223.597;  220.916;  219.081; 2.68038
 888.76;  219.621;  216.685;  216.553; 2.93538
 889.31;  230.503;  227.103;  227.063; 3.39938
 889.87;  230.691;  226.996;  226.933; 3.69438
 890.42;  221.709;  218.058;  219.404; 3.65037
 890.98;  227.832;  223.814;  224.217; 4.01738
 891.53;  201.620;  198.607;  198.956; 3.01237
 892.09;  237.030;  234.420;  233.343; 2.60938
 892.64;  219.761;  216.970;  217.915; 2.79037
 893.19;  224.094;  221.025;  221.488; 3.06838
 893.75;  209.715;  206.427;  206.559; 3.28737
 894.30;  239.773;  234.563;  236.042; 5.20938
 894.86;  206.576;  204.328;  205.145; 2.24738
 895.41;  245.856;  242.056;  242.484; 3.79938
 895.97;  209.549;  206.681;  207.451; 2.86738
 896.52;  245.624;  242.153;  244.098; 3.47037
 897.08;  229.160;  226.264;  227.097; 2.89538
 897.63;  245.075;  240.613;  242.463; 4.46138
 898.19;  224.505;  222.486;  221.941; 2.01838
 898.74;  245.311;  242.666;  241.964; 2.64438
 899.29;  244.327;  240.616;  241.423; 3.71038
 899.85;  220.417;  216.887;  217.840; 3.52938
 900.40;  226.097;  223.436;  224.623; 2.66038
 900.96;  229.264;  225.042;  224.386; 4.22138
 901.51;  224.588;  221.581;  221.344; 3.00637
 902.06;  227.994;  225.004;  225.298; 2.98937
 902.62;  239.062;  235.807;  235.915; 3.25437
 903.17;  234.581;  231.255;  232.176; 3.32538
 903.73;  237.603;  233.905;  235.707; 3.69738
 904.28;  219.865;  217.238;  216.385; 2.62637
 904.83;  252.099;  249.294;  249.126; 2.80437
 905.39;  205.300;  201.924;  202.872; 3.37538
 905.94;  232.301;  229.093;  229.504; 3.20738
 906.50;  241.538;  239.345;  239.323; 2.19237
 907.05;  222.024;  218.611;  219.363; 3.41237
 907.60;  239.183;  234.657;  236.963; 4.52538
 908.16;  229.520;  226.200;  228.085; 3.31938
 908.71;  231.664;  228.325;  229.913; 3.33838
 909.26;  235.594;  232.342;  233.397; 3.25138
 909.82;  227.580;  224.382;  227.376; 3.19738
 910.37;  232.107;  228.045;  235.399; 4.06137
 910.92;  240.773;  238.386;  281.745; 2.38637
 911.48;  238.982;  236.515;  481.890; 2.46638
 912.03;  213.466;  210.011;  613.633; 3.45437
 912.58;  230.312;  227.942;  476.373; 2.36937
 913.14;  236.181;  231.486;  301.799; 4.69438
 913.69;  258.231;  255.066;  269.488; 3.16438
 914.24;  217.495;  215.870;  222.219; 1.62437
 914.79;  218.160;  214.815;  218.365; 3.34438
 915.35;  235.901;  231.504;  234.392; 4.39637
 915.90;  240.905;  237.419;  240.487; 3.48538
 916.45;  219.921;  217.425;  218.208; 2.49538
 917.01;  235.334;  232.757;  232.894; 2.57637
 917.56;  230.087;  226.029;  227.311; 4.05738
 918.11;  229.154;  225.175;  226.003; 3.97838
 918.66;  223.471;  220.165;  220.789; 3.30537
 919.22;  237.516;  234.901;  236.207; 2.61437
 919.77;  223.606;  218.968;  221.133; 4.63738
 920.32;  226.094;  223.321;  224.244; 2.77238
 920.87;  232.238;  229.100;  232.864; 3.13738
 921.43;  224.121;  221.571;  250.486; 2.54937
 921.98;  212.698;  208.602;  276.799; 4.09538
 922.53;  216.583;  213.204;  271.522; 3.37838
 923.08;  227.589;  224.258;  245.586; 3.33038
 923.64;  229.430;  225.687;  232.794; 3.74237
 924.19;  232.207;  228.536;  231.064; 3.67038
 924.74;  210.979;  208.642;  211.372; 2.33638
 925.29;  261.613;  257.927;  260.667; 3.68538
 925.84;  236.685;  233.893;  234.899; 2.79138
 926.40;  215.329;  212.756;  212.506; 2.57238
 926.95;  217.359;  214.443;  214.402; 2.91538
 927.50;  218.358;  214.218;  216.696; 4.13937
 928.05;  229.066;  226.003;  226.066; 3.06238
 928.60;  214.871;  212.368;  210.903; 2.50238
 929.15;  231.449;  227.681;  228.948; 3.76738
 929.71;  241.972;  238.590;  238.862; 3.38138
 930.26;  222.207;  219.878;  220.145; 2.32838
 930.81;  229.219;  225.770;  226.373; 3.44838
 931.36;  237.607;  235.038;  235.832; 2.56838
 931.91;  244.792;  240.767;  241.662; 4.02438
 932.46;  241.325;  237.054;  237.655; 4.27038
 933.02;  227.804;  225.029;  224.869; 2.77438
 933.57;  214.395;  212.139;  211.497; 2.25538
 934.12;  215.438;  211.871;  212.075; 3.56638
 934.67;  232.201;  227.530;  232.336; 4.67038
 935.22;  223.570;  220.625;  225.680; 2.94438
 935.77;  249.048;  247.085;  247.265; 1.96238
 936.32;  235.836;  231.228;  233.242; 4.60737
 936.87;  237.660;  233.324;  234.404; 4.33537
 937.42;  232.889;  229.450;  230.149; 3.43838
 937.98;  212.598;  208.921;  211.733; 3.67638
 938.53;  224.624;  220.828;  221.566; 3.79538
 939.08;  214.924;  211.982;  213.091; 2.94137
 939.63;  236.887;  233.619;  233.627; 3.26738
 940.18;  246.427;  244.439;  245.398; 1.98737
 940.73;  226.824;  224.569;  224.525; 2.25437
 941.28;  212.623;  209.417;  210.218; 3.20538
 941.83;  221.164;  217.913;  218.300; 3.25038
 942.38;  215.280;  212.660;  212.832; 2.61937
 942.93;  231.216;  229.033;  228.633; 2.18237
 943.48;  229.275;  226.126;  227.078; 3.14838
 944.03;  214.929;  210.595;  210.439; 4.33337
 944.58;  219.146;  216.394;  217.194; 2.75137
 945.13;  216.081;  212.115;  212.387; 3.96537
 945.68;  207.005;  205.026;  206.217; 1.97838
 946.23;  216.791;  214.309;  213.880; 2.48138
 946.79;  218.171;  213.919;  214.171; 4.25138
 947.34;  236.085;  232.970;  232.911; 3.11437
 947.89;  241.428;  238.454;  238.836; 2.97338
 948.44;  221.173;  218.034;  219.284; 3.13837
 948.99;  220.198;  216.337;  216.924; 3.86038
 949.54;  234.041;  231.747;  230.186; 2.29338
 950.09;  218.544;  215.315;  216.219; 3.22838
 950.64;  218.668;  214.496;  213.164; 4.17138
 951.19;  197.935;  194.598;  195.816; 3.33637
 951.73;  190.611;  187.468;  187.208; 3.14238
 952.28;  231.929;  230.153;  230.870; 1.77537
 952.83;  226.564;  223.607;  222.726; 2.95637
 953.38;  245.392;  243.162;  243.581; 2.22938
 953.93;  220.079;  217.030;  216.650; 3.04838
 954.48;  220.876;  217.431;  219.371; 3.44438
 955.03;  225.427;  222.576;  222.641; 2.85037
 955.58;  223.899;  220.979;  220.638; 2.91938
 956.13;  194.479;  192.731;  192.119; 1.74738
 956.68;  207.350;  203.079;  204.813; 4.27038
 957.23;  194.054;  191.531;  190.369; 2.52238
 957.78;  207.340;  203.775;  204.342; 3.56438
 958.33;  187.419;  183.503;  184.908; 3.91538
 958.88;  215.572;  212.988;  214.074; 2.58337
 959.43;  222.994;  220.040;  220.660; 2.95337
 959.98;  210.541;  206.625;  207.110; 3.91538
 960.53;  238.596;  234.353;  235.735; 4.24237
 961.07;  209.349;  205.899;  205.337; 3.44938
 961.62;  253.763;  249.831;  250.070; 3.93137
 962.17;  215.547;  212.941;  213.949; 2.60538
 962.72;  219.244;  216.711;  217.978; 2.53238
 963.27;  220.240;  218.041;  218.272; 2.19837
 963.82;  208.505;  206.243;  207.269; 2.26138
 964.37;  231.207;  227.685;  240.124; 3.52138
 964.92;  211.621;  208.531;  264.450; 3.08938
 965.46;  199.793;  196.744;  280.889; 3.04838
 966.01;  212.914;  209.771;  262.804; 3.14238
 966.56;  226.266;  222.364;  237.515; 3.90138
 967.11;  228.733;  224.708;  227.550; 4.02437
 967.66;  214.756;  211.547;  213.586; 3.20837
 968.21;  210.461;  207.716;  208.194; 2.74437
 968.75;  227.761;  225.245;  224.204; 2.51538
 969.30;  219.871;  216.954;  216.833; 2.91638
 969.85;  236.175;  234.176;  233.361; 1.99838
 970.40;  225.319;  222.700;  220.821; 2.61838
 970.95;  228.694;  226.417;  226.071; 2.27638
 971.50;  224.998;  223.073;  223.994; 1.92438
 972.04;  228.210;  223.538;  225.460; 4.67138
 972.59;  236.522;  234.311;  233.089; 2.21038
 973.14;  230.023;  226.251;  226.225; 3.77138
 973.69;  237.498;  235.170;  235.642; 2.32738
 974.24;  222.947;  219.690;  220.206; 3.25637
 974.78;  218.855;  216.344;  215.873; 2.51038
 975.33;  249.821;  245.614;  245.834; 4.20638
 975.88;  234.152;  229.418;  229.422; 4.73338
 976.43;  230.165;  227.936;  227.200; 2.22838
 976.97;  224.129;  221.542;  220.970; 2.58638
 977.52;  212.894;  210.631;  212.176; 2.26238
 978.07;  259.249;  256.094;  261.140; 3.15438
 978.62;  248.453;  245.501;  249.999; 2.95138
 979.16;  246.178;  243.324;  245.899; 2.85338
 979.71;  214.094;  210.246;  211.338; 3.84738
 980.26;  235.611;  232.162;  233.353; 3.44838
 980.81;  234.802;  231.327;  230.718; 3.47438
 981.35;  257.987;  254.473;  254.809; 3.51337
 981.90;  245.916;  243.010;  241.517; 2.90538
 982.45;  244.004;  240.057;  240.405; 3.94637
 982.99;  246.175;  241.941;  242.664; 4.23338
 983.54;  243.297;  239.979;  239.293; 3.31738
 984.09;  234.845;  230.442;  231.355; 4.40238
 984.63;  231.170;  228.876;  228.448; 2.29338
 985.18;  245.429;  242.114;  242.377; 3.31438
 985.73;  239.164;  235.992;  235.860; 3.17138
 986.27;  227.625;  225.317;  224.967; 2.30738
 986.82;  235.676;  232.007;  233.190; 3.66838
 987.37;  251.801;  246.398;  246.808; 5.40237
 987.91;  240.999;  236.684;  236.652; 4.31437
 988.46;  250.134;  244.922;  247.721; 5.21138
 989.01;  241.578;  239.168;  237.572; 2.40938
 989.55;  243.822;  240.845;  241.214; 2.97637
 990.10;  251.958;  247.882;  248.030; 4.07538
 990.65;  266.568;  264.063;  262.831; 2.50437
 991.19;  239.314;  236.583;  236.217; 2.73037
 991.74;  257.915;  255.060;  254.016; 2.85438
 992.29;  247.216;  242.377;  243.190; 4.83837
 992.83;  258.252;  255.509;  254.085; 2.74238
 993.38;  252.467;  248.869;  247.359; 3.59738
 993.92;  231.227;  228.304;  226.472; 2.92238
 994.47;  218.582;  216.438;  216.807; 2.14338
 995.02;  239.924;  236.276;  236.735; 3.64738
 995.56;  258.461;  256.141;  256.692; 2.31938
 996.11;  249.149;  247.013;  246.882; 2.13538
 996.65;  250.391;  247.453;  247.876; 2.93738
 997.20;  243.534;  240.169;  240.294; 3.36438
 997.75;  242.543;  239.996;  239.437; 2.54638
 998.29;  218.881;  216.003;  216.133; 2.87738
 998.84;  248.139;  244.933;  245.329; 3.20538
 999.38;  249.451;  246.476;  244.812; 2.97438
 999.93;  264.656;  261.243;  261.675; 3.41237
1000.47;  262.988;  260.203;  260.831; 2.78437
1001.02;  257.517;  254.354;  253.386; 3.16237
1001.56;  243.769;  240.741;  239.780; 3.02738
1002.11;  233.256;  231.050;  230.445; 2.20538
1002.65;  226.430;  224.299;  223.243; 2.13038
1003.20;  236.354;  232.482;  231.881; 3.87138
1003.75;  268.733;  265.828;  266.036; 2.90437
1004.29;  235.680;  234.636;  233.303; 1.04337
1004.84;  223.248;  219.628;  220.546; 3.61938
1005.38;  225.968;  222.757;  222.859; 3.21037
1005.93;  245.689;  242.295;  241.364; 3.39337
1006.47;  224.254;  220.477;  220.692; 3.77638
1007.02;  230.879;  227.889;  227.662; 2.98937
1007.56;  246.846;  243.707;  242.798; 3.13837
1008.11;  252.471;  250.297;  249.411; 2.17338
1008.65;  210.945;  207.523;  207.079; 3.42138
1009.19;  239.939;  235.898;  236.390; 4.04037
1009.74;  234.186;  230.551;  231.223; 3.63438
1010.28;  237.456;  233.466;  234.215; 3.98937
1010.83;  246.321;  242.042;  242.437; 4.27838
1011.37;  240.032;  235.158;  235.037; 4.87338
1011.92;  237.283;  233.780;  235.208; 3.50238
1012.46;  230.351;  227.256;  230.410; 3.09438
1013.01;  265.734;  262.076;  282.128; 3.65738
1013.55;  236.607;  232.732;  261.377; 3.87437
1014.09;  231.848;  228.539;  247.080; 3.30838
1014.64;  229.741;  227.787;  235.199; 1.95338
1015.18;  228.039;  225.081;  226.875; 2.95738
1015.73;  223.325;  220.280;  221.345; 3.04438
1016.27;  243.370;  240.147;  239.850; 3.22237
1016.82;  236.086;  232.308;  232.899; 3.77738
1017.36;  227.349;  224.141;  224.463; 3.20738
1017.90;  217.595;  214.151;  214.821; 3.44338
1018.45;  213.216;  209.241;  209.010; 3.97438
1018.99;  214.507;  211.398;  213.271; 3.10837
1019.53;  203.383;  200.198;  199.948; 3.18438
1020.08;  231.515;  227.278;  227.485; 4.23638
1020.62;  232.366;  228.572;  229.827; 3.79338
1021.17;  236.055;  232.641;  232.392; 3.41337
1021.71;  234.429;  231.938;  232.866; 2.49038
1022.25;  244.295;  238.795;  239.904; 5.49937
1022.80;  217.800;  213.494;  214.907; 4.30538
1023.34;  214.970;  210.921;  211.512; 4.04838
1023.88;  228.239;  225.958;  224.103; 2.28037
1024.43;  232.302;  229.192;  229.391; 3.10938
1024.97;  235.556;  232.468;  233.233; 3.08738
1025.51;  215.794;  213.056;  213.395; 2.73738
1026.06;  232.561;  228.663;  227.836; 3.89738
1026.60;  236.077;  232.935;  233.723; 3.14138
1027.14;  247.944;  244.409;  244.366; 3.53438
1027.69;  236.757;  233.391;  232.097; 3.36537
1028.23;  231.447;  227.864;  228.253; 3.58238
1028.77;  216.171;  210.959;  212.300; 5.21138
1029.31;  228.336;  223.907;  224.128; 4.42838
1029.86;  220.629;  217.588;  216.083; 3.04037
1030.40;  265.812;  261.277;  262.077; 4.53438
1030.94;  235.244;  231.815;  232.446; 3.42838
1031.48;  245.000;  241.865;  240.883; 3.13438
1032.03;  231.603;  228.825;  227.501; 2.77738
1032.57;  233.281;  229.710;  229.752; 3.57038
1033.11;  229.508;  225.599;  224.720; 3.90838
1033.65;  218.508;  215.604;  213.877; 2.90338
1034.20;  238.321;  234.869;  235.433; 3.45138
1034.74;  235.527;  231.769;  231.019; 3.75738
1035.28;  234.191;  231.913;  231.832; 2.27738
1035.82;  212.184;  208.719;  209.377; 3.46438
1036.37;  226.882;  223.026;  221.872; 3.85537
1036.91;  251.220;  247.037;  248.405; 4.18238
1037.45;  241.911;  238.466;  237.398; 3.44437
1037.99;  231.483;  228.249;  227.965; 3.23337
1038.53;  232.743;  228.503;  229.202; 4.23938
1039.08;  220.542;  217.063;  217.129; 3.47838
1039.62;  220.124;  217.190;  215.711; 2.93338
1040.16;  224.756;  221.639;  220.940; 3.11638
1040.70;  230.835;  227.786;  226.788; 3.04838
1041.24;  246.261;  243.354;  243.321; 2.90638
1041.79;  221.382;  217.552;  217.096; 3.82937
1042.33;  228.245;  224.346;  223.935; 3.89837
1042.87;  220.766;  217.206;  216.620; 3.55937
1043.41;  226.431;  222.501;  221.794; 3.92938
1043.95;  238.643;  234.598;  234.674; 4.04438
1044.49;  206.557;  203.225;  204.268; 3.33137
1045.04;  237.556;  233.232;  234.685; 4.32337
1045.58;  229.423;  225.819;  225.050; 3.60337
1046.12;  259.556;  254.707;  256.429; 4.84837
1046.66;  240.607;  236.566;  239.465; 4.04038
1047.20;  222.335;  218.107;  220.647; 4.22737
1047.74;  255.429;  252.960;  252.264; 2.46838
1048.28;  237.397;  233.803;  234.715; 3.59338
1048.82;  253.175;  249.718;  249.899; 3.45637
1049.36;  256.169;  252.411;  252.537; 3.75738
1049.91;  244.339;  240.165;  240.839; 4.17338
1050.45;  236.193;  233.614;  233.443; 2.57838
1050.99;  256.353;  253.961;  253.565; 2.39138
1051.53;  262.107;  258.279;  258.198; 3.82737
1052.07;  235.353;  231.776;  231.546; 3.57637
1052.61;  235.877;  232.081;  231.951; 3.79537
1053.15;  245.813;  243.212;  242.976; 2.60038
1053.69;  239.136;  235.231;  236.380; 3.90438
1054.23;  244.248;  240.856;  241.171; 3.39138
1054.77;  259.897;  256.236;  255.399; 3.66037
1055.31;  243.089;  239.527;  239.084; 3.56138
1055.85;  235.878;  231.508;  232.209; 4.36938
1056.39;  235.513;  231.911;  231.936; 3.60138
1056.93;  245.089;  240.977;  240.459; 4.11138
1057.47;  254.752;  251.819;  250.912; 2.93237
1058.01;  252.119;  247.962;  248.715; 4.15638
1058.55;  248.657;  245.288;  246.950; 3.36838
1059.09;  250.632;  246.810;  246.105; 3.82137
1059.63;  258.331;  254.581;  252.957; 3.74938
1060.17;  270.468;  267.383;  266.822; 3.08438
1060.71;  234.824;  231.281;  231.876; 3.54237
1061.25;  248.030;  243.365;  243.753; 4.66438
1061.79;  248.506;  244.794;  243.820; 3.71138
1062.33;  240.292;  237.078;  237.818; 3.21338
1062.87;  271.596;  267.830;  267.178; 3.76538
1063.41;  250.322;  246.600;  245.913; 3.72138
1063.95;  257.056;  253.288;  253.445; 3.76738
1064.49;  238.892;  235.054;  236.618; 3.83738
1065.03;  295.432;  291.317;  291.184; 4.11438
1065.57;  269.259;  264.609;  263.442; 4.64938
1066.11;  249.533;  247.101;  245.700; 2.43138
1066.65;  246.620;  243.172;  242.225; 3.44737
1067.19;  262.789;  260.238;  258.730; 2.55038
1067.73;  272.654;  268.166;  267.504; 4.48738
1068.27;  240.916;  236.331;  236.573; 4.58438
1068.81;  246.326;  243.212;  242.997; 3.11338
1069.35;  272.632;  267.789;  267.481; 4.84237
1069.89;  238.958;  235.643;  234.383; 3.31438
1070.43;  263.500;  259.949;  259.943; 3.55038
1070.96;  260.576;  256.385;  254.939; 4.19038
1071.50;  258.644;  254.423;  253.966; 4.22038
1072.04;  253.389;  250.627;  249.432; 2.76138
1072.58;  259.936;  256.361;  255.917; 3.57437
1073.12;  270.141;  267.410;  266.714; 2.73037
1073.66;  240.622;  238.047;  237.410; 2.57437
1074.20;  249.564;  246.415;  248.196; 3.14837
1074.74;  257.322;  253.679;  253.551; 3.64238
1075.27;  245.578;  243.478;  243.897; 2.09938
1075.81;  247.392;  244.072;  243.029; 3.31938
1076.35;  254.370;  250.500;  249.120; 3.86938
1076.89;  256.938;  252.503;  251.325; 4.43438
1077.43;  272.515;  269.825;  267.999; 2.68938
1077.97;  259.141;  256.349;  256.720; 2.79138
1078.50;  256.760;  252.629;  252.985; 4.13038
1079.04;  248.416;  244.649;  242.128; 3.76638
1079.58;  253.129;  249.365;  249.444; 3.76338
1080.12;  249.328;  245.001;  245.012; 4.32638
1080.66;  264.677;  261.188;  260.419; 3.48838
1081.20;  242.580;  239.507;  239.541; 3.07238
1081.73;  238.408;  233.600;  233.654; 4.80737
1082.27;  258.514;  254.179;  252.998; 4.33438
1082.81;  260.774;  258.626;  257.378; 2.14738
1083.35;  251.892;  249.198;  248.599; 2.69338
1083.88;  252.989;  248.672;  248.179; 4.31637
1084.42;  269.554;  264.464;  265.394; 5.08938
1084.96;  246.249;  243.203;  241.314; 3.04538
1085.50;  254.653;  250.098;  249.738; 4.55438
1086.04;  250.724;  246.902;  246.985; 3.82137
1086.57;  275.373;  271.733;  271.691; 3.63937
1087.11;  253.706;  249.627;  249.705; 4.07838
1087.65;  243.868;  240.219;  240.281; 3.64838
1088.19;  268.028;  265.083;  264.683; 2.94438
1088.72;  252.094;  249.367;  249.220; 2.72637
1089.26;  245.065;  241.925;  240.830; 3.13938
1089.80;  239.143;  235.339;  235.334; 3.80338
1090.33;  276.244;  273.404;  273.528; 2.83938
1090.87;  232.633;  228.116;  227.543; 4.51638
1091.41;  238.086;  234.206;  233.488; 3.87937
1091.95;  254.208;  251.324;  250.943; 2.88338
1092.48;  266.541;  261.837;  263.655; 4.70337
1093.02;  238.153;  236.268;  235.415; 1.88438
1093.56;  258.014;  255.327;  254.412; 2.68637
1094.09;  234.843;  230.063;  229.661; 4.77938
1094.63;  235.204;  231.309;  230.537; 3.89437
1095.17;  240.480;  237.088;  236.861; 3.39137
1095.70;  254.987;  250.927;  250.037; 4.05937
1096.24;  242.110;  238.468;  237.502; 3.64137
1096.78;  239.561;  235.585;  234.609; 3.97538
1097.31;  241.202;  237.272;  237.279; 3.92938
1097.85;  248.568;  244.074;  243.933; 4.49338
1098.39;  231.294;  227.740;  227.157; 3.55338
1098.92;  246.263;  243.127;  243.537; 3.13538
1099.46;  253.398;  249.541;  249.128; 3.85638
1099.99;  243.751;  239.752;  239.172; 3.99838
1100.53;  248.794;  244.654;  244.501; 4.13938

