
Integration time [ms]:   0.100
Averaging Nr. [scans]: 10000
Smoothing Nr. [pixels]: 0
Data measured with spectrometer [name]: 7213323SP
Wave   ;Sample   ;Dark     ;Reference;Absolute Irradiance  ;Photon Counts
[nm]   ;[counts] ;[counts] ;[counts] ;[µWatt/cm²/nm]       ;[µMol/s/m²/nm]

 175.65;  197.987;  213.075;  197.124; 0.00000; 0.00000
 176.25;  218.446;  207.077;  216.251; 0.00000; 0.00000
 176.85;  215.284;  214.076;  214.253; 0.00000; 0.00000
 177.45;  215.944;  204.076;  213.923; 0.00000; 0.00000
 178.05;  206.705;  182.076;  205.015; 0.00000; 0.00000
 178.65;  205.582;  203.075;  204.000; 0.00000; 0.00000
 179.25;  201.430;  202.074;  200.248; 0.00000; 0.00000
 179.85;  209.613;  216.076;  207.425; 0.00000; 0.00000
 180.45;  201.183;  195.075;  199.877; 0.00000; 0.00000
 181.05;  242.175;  252.074;  240.759; 0.00000; 0.00000
 181.65;  202.733;  190.075;  201.623; 0.00000; 0.00000
 182.25;  224.215;  244.074;  222.607; 0.00000; 0.00000
 182.86;  220.574;  235.075;  219.160; 0.00000; 0.00000
 183.46;  218.797;  210.075;  217.401; 0.00000; 0.00000
 184.06;  201.522;  209.076;  200.340; 0.00000; 0.00000
 184.66;  182.113;  194.075;  180.459; 0.00000; 0.00000
 185.26;  233.593;  223.068;  232.442; 0.00000; 0.00000
 185.86;  208.764;  216.066;  207.390; 0.00000; 0.00000
 186.46;  227.459;  256.066;  226.636; 0.00000; 0.00000
 187.06;  210.337;  203.067;  208.589; 0.00000; 0.00000
 187.66;  232.987;  206.067;  231.985; 0.00000; 0.00000
 188.26;  237.247;  214.067;  235.406; 0.00000; 0.00000
 188.86;  216.921;  199.067;  215.850; 0.00000; 0.00000
 189.46;  214.464;  229.067;  213.039; 0.00000; 0.00000
 190.06;  204.866;  236.066;  203.659; 0.00000; 0.00000
 190.66;  209.934;  224.068;  208.498; 0.00000; 0.00000
 191.26;  227.844;  216.066;  227.110; 0.00000; 0.00000
 191.86;  223.780;  200.067;  222.397; 0.00000; 0.00000
 192.46;  222.331;  191.066;  221.184; 0.00000; 0.00000
 193.06;  224.607;  207.067;  222.854; 0.00000; 0.00000
 193.66;  215.197;  221.067;  214.383; 0.00000; 0.00000
 194.26;  232.758;  215.068;  231.613; 0.00000; 0.00000
 194.86;  200.119;  183.067;  198.764; 0.00000; 0.00000
 195.46;  205.570;  178.067;  203.919; 0.00000; 0.00000
 196.06;  219.489;  190.068;  218.291; 0.00000; 0.00000
 196.66;  197.508;  197.068;  195.835; 0.00000; 0.00000
 197.26;  195.740;  172.068;  194.661; 0.00000; 0.00000
 197.86;  225.709;  240.067;  224.205; 0.00000; 0.00000
 198.46;  193.764;  192.067;  192.725; 0.00000; 0.00000
 199.06;  221.650;  188.067;  220.163; 0.00000; 0.00000
 199.66;  211.610;  191.067;  210.815; 0.00000; 0.00000
 200.26;  200.209;  201.067;  198.195;-9.89234;-0.16557
 200.85;  218.332;  191.069;  217.441;302.39939; 5.07641
 201.45;  210.906;  219.067;  209.096;-85.93440;-1.44690
 202.05;  210.014;  217.068;  209.097;-70.56237;-1.19161
 202.65;  206.206;  210.067;  205.053;-36.79584;-0.62323
 203.25;  196.608;  207.068;  195.251;-94.62265;-1.60741
 203.85;  210.384;  202.069;  208.956;72.01895; 1.22703
 204.45;  240.759;  208.067;  239.647;271.59753; 4.64099
 205.05;  186.024;  193.068;  184.515;-55.69842;-0.95455
 205.65;  193.324;  198.068;  192.138;-35.14981;-0.60415
 206.25;  220.920;  222.068;  219.004;-8.15857;-0.14064
 206.85;  199.518;  196.067;  198.397;23.29744; 0.40277
 207.45;  207.345;  193.068;  206.056;91.75905; 1.59093
 208.05;  196.768;  217.068;  195.157;-125.27337;-2.17829
 208.65;  198.657;  230.068;  197.157;-187.71001;-3.27335
 209.25;  190.131;  224.068;  189.041;-195.34363;-3.41625
 209.84;  218.905;  219.067;  217.507;-0.92257;-0.01618
 210.44;  200.243;  199.068;  198.876; 6.50047; 0.11433
 211.04;  235.657;  267.068;  234.048;-168.54978;-2.97299
 211.64;  200.646;  188.066;  199.892;64.45812; 1.14018
 212.24;  212.408;  209.068;  210.605;16.47675; 0.29228
 212.84;  208.096;  190.067;  207.066;86.21313; 1.53363
 213.44;  195.118;  200.067;  193.775;-22.57490;-0.40271
 214.04;  194.157;  210.068;  193.567;-69.62780;-1.24557
 214.64;  211.573;  157.067;  210.055;227.77034; 4.08597
 215.24;  191.383;  205.068;  190.255;-55.44071;-0.99733
 215.83;  212.403;  204.067;  211.130;32.40899; 0.58463
 216.43;  180.739;  169.068;  179.390;43.93154; 0.79468
 217.03;  188.527;  170.067;  186.755;67.65992; 1.22730
 217.63;  194.099;  211.068;  193.198;-59.77632;-1.08729
 218.23;  203.306;  195.068;  202.169;28.50550; 0.51992
 218.83;  194.983;  205.068;  194.139;-33.86181;-0.61931
 219.43;  192.172;  167.068;  190.676;82.02682; 1.50432
 220.03;  185.848;  168.067;  184.680;56.21210; 1.03371
 220.62;  191.332;  150.068;  189.478;126.98891; 2.34160
 221.22;  202.162;  202.068;  200.888; 0.27927; 0.00516
 221.82;  208.432;  191.067;  206.530;50.71143; 0.94016
 222.42;  185.645;  152.067;  184.631;95.42588; 1.77392
 223.02;  198.513;  235.068;  197.200;-102.28398;-1.90653
 223.62;  191.503;  176.068;  190.524;42.58322; 0.79586
 224.22;  212.506;  190.068;  210.836;61.55911; 1.15359
 224.81;  207.088;  178.068;  205.982;79.34831; 1.49092
 225.41;  206.181;  211.068;  204.998;-13.23024;-0.24925
 226.01;  192.231;  196.068;  191.205;-10.28623;-0.19430
 226.61;  196.025;  193.068;  194.465; 7.77223; 0.14720
 227.21;  195.649;  202.069;  195.134;-16.34503;-0.31039
 227.81;  222.192;  214.068;  220.935;20.19734; 0.38455
 228.40;  189.708;  188.068;  188.771; 3.93257; 0.07507
 229.00;  198.564;  195.068;  197.589; 8.12998; 0.15560
 229.60;  202.788;  213.067;  201.442;-23.05026;-0.44233
 230.20;  229.243;  214.068;  228.400;32.68276; 0.62880
 230.80;  190.165;  162.068;  189.881;58.69645; 1.13223
 231.39;  187.870;  171.066;  186.138;34.10559; 0.65959
 231.99;  209.099;  186.069;  208.260;45.13627; 0.87517
 232.59;  237.150;  213.067;  235.936;46.18395; 0.89779
 233.19;  207.195;  174.067;  206.632;61.61232; 1.20079
 233.79;  221.085;  182.068;  219.931;70.86627; 1.38469
 234.38;  209.237;  208.068;  208.222; 2.09926; 0.04112
 234.98;  216.230;  182.068;  214.812;59.73377; 1.17314
 235.58;  220.676;  223.067;  220.165;-4.11945;-0.08111
 236.18;  233.430;  192.067;  231.987;70.12227; 1.38417
 236.78;  224.118;  194.067;  222.717;50.18945; 0.99322
 237.37;  239.189;  207.067;  238.339;52.98106; 1.05111
 237.97;  247.226;  216.066;  246.135;50.51011; 1.00461
 238.57;  248.837;  170.067;  248.058;126.34351; 2.51919
 239.17;  222.100;  195.067;  221.470;42.90736; 0.85768
 239.76;  244.369;  182.066;  242.999;98.47711; 1.97340
 240.36;  235.888;  188.066;  235.530;75.97028; 1.52617
 240.96;  265.366;  207.067;  264.536;92.33811; 1.85960
 241.56;  236.181;  184.067;  235.035;83.27672; 1.68127
 242.15;  249.231;  196.067;  247.926;85.08061; 1.72194
 242.75;  271.828;  234.067;  271.208;60.85048; 1.23459
 243.35;  254.651;  131.067;  253.777;202.50397; 4.11869
 243.95;  271.662;  196.066;  270.756;123.16981; 2.51128
 244.54;  285.440;  235.066;  284.152;82.41181; 1.68439
 245.14;  283.740;  193.067;  283.479;147.35750; 3.01915
 245.74;  307.602;  198.067;  306.754;176.02195; 3.61523
 246.34;  288.673;  192.067;  289.017;153.43331; 3.15895
 246.93;  312.936;  189.066;  312.369;192.41046; 3.97104
 247.53;  291.055;  140.067;  291.846;229.52204; 4.74842
 248.13;  367.071;  229.066;  367.721;203.80776; 4.22661
 248.73;  357.347;  200.067;  358.196;228.06500; 4.74104
 249.32;  348.668;  153.067;  348.988;276.46245; 5.76093
 249.92;  351.891;  181.067;  352.562;236.52363; 4.94049
 250.52;  406.968;  205.067;  407.782;273.35559; 5.72348
 251.11;  478.935;  213.066;  482.043;353.10301; 7.41084
 251.71;  664.257;  197.067;  669.434;614.95032;12.93711
 252.31; 1296.256;  181.067; 1315.841;1453.26114;30.64572
 252.91;10903.495;  219.066;11085.920;13728.90469;290.19406
 253.50;39324.121;  147.066;39738.397;50028.20704;1059.96497
 254.10;42974.021;  181.067;43140.127;54103.41702;1149.00720
 254.70;13567.404;  183.068;13486.508;16742.80988;356.40635
 255.29; 1268.693;  225.067; 1258.282;1308.61981;27.92204
 255.89;  527.851;  180.066;  526.364;433.36008; 9.26823
 256.49;  405.145;  162.067;  403.852;302.13354; 6.47677
 257.08;  363.209;  189.067;  362.603;214.95978; 4.61877
 257.68;  353.791;  204.068;  353.361;185.24785; 3.98960
 258.28;  332.321;  179.066;  332.045;187.60631; 4.04975
 258.87;  316.947;  211.067;  316.058;130.41645; 2.82173
 259.47;  290.138;  190.067;  289.669;122.67921; 2.66044
 260.07;  291.621;  217.067;  290.644;92.17831; 2.00359
 260.66;  262.157;  167.068;  261.158;119.55268; 2.60456
 261.26;  304.108;  196.066;  302.604;136.57919; 2.98231
 261.86;  289.498;  208.067;  289.247;104.42530; 2.28541
 262.45;  259.107;  164.067;  257.979;124.61221; 2.73343
 263.05;  257.046;  193.067;  256.155;84.64361; 1.86092
 263.65;  252.003;  188.067;  251.047;85.42459; 1.88235
 264.24;  265.486;  197.067;  265.199;94.31610; 2.08297
 264.84;  301.103;  213.066;  300.117;123.41618; 2.73180
 265.44;  300.416;  177.066;  299.611;175.09657; 3.88447
 266.03;  263.613;  183.068;  262.240;115.08364; 2.55883
 266.63;  222.755;  167.066;  221.836;80.11959; 1.78542
 267.23;  232.401;  181.067;  230.938;73.48003; 1.64112
 267.82;  209.282;  185.067;  208.490;34.88856; 0.78095
 268.42;  216.300;  199.067;  214.845;24.47221; 0.54901
 269.01;  215.798;  176.066;  215.126;55.66720; 1.25161
 269.61;  224.543;  172.068;  223.322;72.59242; 1.63577
 270.21;  226.969;  157.067;  226.088;94.33263; 2.13035
 270.80;  242.806;  201.066;  241.374;55.14142; 1.24803
 271.40;  203.957;  144.066;  203.041;77.62658; 1.76081
 271.99;  238.522;  163.067;  236.625;95.67276; 2.17491
 272.59;  196.622;  183.067;  195.122;16.99031; 0.38708
 273.19;  204.636;  135.067;  202.996;84.63656; 1.93246
 273.78;  194.529;  193.067;  193.749; 1.74510; 0.03993
 274.38;  211.217;  159.066;  210.088;60.55356; 1.38862
 274.97;  229.684;  180.067;  228.717;56.56844; 1.30005
 275.57;  234.777;  194.066;  233.347;45.53828; 1.04882
 276.17;  196.950;  148.068;  196.042;53.83917; 1.24269
 276.76;  219.184;  193.068;  217.753;28.26757; 0.65386
 277.36;  215.661;  208.066;  214.989; 8.12183; 0.18827
 277.95;  221.113;  201.066;  219.525;20.91112; 0.48578
 278.55;  202.808;  184.067;  202.087;19.35327; 0.45056
 279.14;  222.405;  199.068;  220.932;23.89499; 0.55748
 279.74;  226.278;  199.067;  225.630;27.46480; 0.64213
 280.34;  223.389;  161.068;  222.422;62.01205; 1.45294
 280.93;  262.076;  235.067;  261.151;26.53978; 0.62315
 281.53;  217.999;  181.067;  216.320;35.87837; 0.84420
 282.12;  252.812;  196.069;  252.124;54.39872; 1.28269
 282.72;  250.980;  192.067;  250.383;55.88945; 1.32062
 283.31;  243.435;  179.068;  242.426;60.51340; 1.43289
 283.91;  208.376;  160.068;  206.736;45.19063; 1.07231
 284.50;  230.891;  173.068;  230.385;53.82850; 1.27996
 285.10;  239.282;  223.068;  237.689;15.02209; 0.35795
 285.69;  200.185;  143.069;  199.622;53.33269; 1.27347
 286.29;  223.870;  198.068;  222.243;24.05727; 0.57563
 286.89;  212.466;  183.067;  211.298;27.53904; 0.66031
 287.48;  217.224;  197.068;  215.804;19.19395; 0.46118
 288.08;  232.306;  210.068;  231.535;20.86299; 0.50232
 288.67;  226.292;  166.068;  224.656;56.98329; 1.37482
 289.27;  256.279;  182.068;  255.110;70.73485; 1.71011
 289.86;  251.241;  168.067;  248.804;79.56696; 1.92760
 290.46;  205.482;  179.069;  203.991;25.22811; 0.61243
 291.05;  210.915;  172.068;  209.359;36.86196; 0.89669
 291.65;  203.640;  192.068;  202.492;10.93328; 0.26650
 292.24;  232.875;  210.068;  231.641;21.33422; 0.52109
 292.84;  216.509;  183.067;  215.325;30.94315; 0.75733
 293.43;  220.130;  168.069;  218.653;48.09010; 1.17939
 294.03;  216.174;  185.068;  215.348;27.94869; 0.68682
 294.62;  223.724;  211.068;  222.422;11.25090; 0.27704
 295.22;  205.233;  184.068;  204.751;18.46664; 0.45564
 295.81;  233.770;  190.068;  232.481;37.48797; 0.92683
 296.41;  563.391;  207.068;  563.220;300.56232; 7.44586
 297.00;  963.858;  201.067;  959.541;630.59514;15.65314
 297.60;  593.302;  160.069;  587.334;353.54515; 8.79356
 298.19;  269.682;  181.069;  267.694;70.78262; 1.76406
 298.78;  226.814;  178.070;  225.166;38.40835; 0.95913
 299.38;  202.482;  158.068;  200.826;34.45803; 0.86220
 299.97;  228.736;  189.067;  227.567;30.46016; 0.76368
 300.57;  212.994;  215.069;  211.288;-1.56893;-0.03941
 301.16;  168.745;  161.068;  167.737; 5.73443; 0.14434
 301.76;  236.415;  224.067;  235.372; 9.03142; 0.22778
 302.35;  334.146;  190.068;  333.610;103.94055; 2.62658
 302.95;  339.981;  203.068;  338.237;94.95094; 2.40413
 303.54;  213.798;  176.069;  212.770;25.58558; 0.64909
 304.14;  201.785;  171.067;  200.074;20.22543; 0.51411
 304.73;  231.650;  209.068;  231.100;14.53474; 0.37018
 305.32;  218.414;  208.067;  217.117; 6.52585; 0.16653
 305.92;  197.009;  146.068;  196.333;31.74614; 0.81169
 306.51;  193.226;  141.068;  191.669;31.92788; 0.81792
 307.11;  212.009;  178.067;  211.235;20.42160; 0.52417
 307.70;  192.226;  173.069;  190.927;11.33285; 0.29145
 308.29;  195.598;  153.068;  194.430;24.78908; 0.63873
 308.89;  203.835;  170.068;  202.159;19.52411; 0.50404
 309.48;  166.244;  165.070;  165.628; 0.67153; 0.01737
 310.08;  208.785;  164.067;  207.187;25.15511; 0.65191
 310.67;  215.132;  143.069;  213.991;40.49030; 1.05135
 311.27;  227.830;  175.069;  226.176;29.42341; 0.76545
 311.86;  426.138;  210.070;  425.186;119.11010; 3.10456
 312.45; 1193.263;  195.069; 1192.452;546.18304;14.26319
 313.05; 2245.315;  201.069; 2238.504;1108.88663;29.01285
 313.64; 2228.703;  204.069; 2211.875;1100.96531;28.86024
 314.23; 1190.676;  190.069; 1177.731;535.23562;14.05701
 314.83;  527.574;  188.068;  523.186;180.83507; 4.75828
 315.42;  368.348;  140.068;  366.133;122.09924; 3.21884
 316.02;  325.314;  167.068;  323.490;85.04539; 2.24623
 316.61;  293.397;  181.069;  291.581;59.82161; 1.58298
 317.20;  285.682;  156.068;  283.241;68.83106; 1.82480
 317.80;  256.120;  151.068;  254.572;56.14532; 1.49127
 318.39;  257.695;  173.069;  255.497;45.48446; 1.21037
 318.98;  273.888;  208.069;  272.047;35.63855; 0.95013
 319.58;  237.357;  189.069;  235.419;26.15275; 0.69853
 320.17;  236.285;  195.068;  234.827;22.67443; 0.60675
 320.76;  233.645;  198.067;  231.876;19.72314; 0.52876
 321.36;  224.015;  185.069;  222.975;21.51986; 0.57799
 321.95;  214.806;  181.068;  212.977;18.96883; 0.51042
 322.55;  233.121;  201.068;  232.083;18.05758; 0.48679
 323.14;  201.796;  160.068;  199.977;23.76254; 0.64176
 323.73;  203.348;  156.069;  202.161;27.29938; 0.73864
 324.33;  221.634;  195.070;  219.903;15.60450; 0.42298
 324.92;  211.868;  179.069;  211.017;19.59103; 0.53202
 325.51;  206.332;  181.069;  204.656;15.23383; 0.41445
 326.10;  198.630;  167.068;  197.249;19.19083; 0.52305
 326.70;  210.961;  203.069;  209.140; 4.85737; 0.13263
 327.29;  205.893;  196.069;  204.470; 6.11552; 0.16729
 327.88;  200.095;  192.068;  198.773; 5.00346; 0.13711
 328.48;  215.410;  173.068;  214.111;26.46881; 0.72666
 329.07;  218.081;  168.068;  216.562;31.24668; 0.85938
 329.66;  207.899;  184.069;  206.637;15.21706; 0.41927
 330.26;  210.259;  177.069;  208.646;21.02258; 0.58027
 330.85;  214.039;  209.070;  212.413; 3.13756; 0.08676
 331.44;  206.813;  173.069;  205.281;21.38953; 0.59252
 332.04;  206.075;  185.067;  205.228;13.15763; 0.36514
 332.63;  193.113;  143.069;  191.767;31.38933; 0.87264
 333.22;  209.310;  231.070;  208.847;-13.48692;-0.37561
 333.81;  247.310;  215.069;  245.782;19.68911; 0.54932
 334.41;  272.545;  189.069;  270.830;50.43779; 1.40969
 335.00;  248.508;  207.069;  246.712;24.63898; 0.68986
 335.59;  204.003;  222.068;  202.795;-10.63273;-0.29823
 336.18;  208.803;  184.069;  206.593;14.43319; 0.40554
 336.78;  186.394;  160.069;  184.879;15.07234; 0.42425
 337.37;  190.936;  187.070;  189.570; 2.15502; 0.06076
 337.96;  245.845;  242.068;  244.955; 2.07193; 0.05852
 338.55;  217.515;  200.069;  215.771; 9.41340; 0.26636
 339.15;  204.756;  217.070;  203.475;-6.56017;-0.18595
 339.74;  194.278;  181.069;  192.841; 6.99154; 0.19852
 340.33;  190.069;  196.069;  188.916;-3.19046;-0.09075
 340.92;  201.853;  194.069;  200.672; 4.19867; 0.11964
 341.52;  196.179;  167.070;  194.799;15.47028; 0.44157
 342.11;  192.343;  177.069;  190.986; 8.01192; 0.22908
 342.70;  180.206;  145.069;  178.880;18.36820; 0.52611
 343.29;  195.973;  197.070;  194.716;-0.57336;-0.01645
 343.89;  183.572;  204.067;  182.789;-10.71667;-0.30801
 344.48;  198.062;  212.069;  196.248;-7.19327;-0.20710
 345.07;  174.783;  189.069;  173.927;-7.32948;-0.21139
 345.66;  204.284;  195.069;  203.151; 4.76627; 0.13770
 346.25;  188.497;  167.069;  187.732;10.97381; 0.31758
 346.85;  202.096;  187.069;  200.878; 7.67397; 0.22246
 347.44;  180.798;  163.069;  179.807; 9.06091; 0.26311
 348.03;  189.575;  157.070;  188.066;16.54585; 0.48128
 348.62;  209.553;  196.070;  208.237; 6.90318; 0.20114
 349.21;  185.464;  196.069;  184.276;-5.47634;-0.15984
 349.81;  197.500;  190.069;  196.633; 3.83514; 0.11213
 350.40;  184.116;  188.069;  182.735;-2.04653;-0.05993
 350.99;  181.733;  183.069;  180.694;-0.70151;-0.02058
 351.58;  192.586;  177.069;  191.186; 8.22186; 0.24160
 352.17;  168.383;  159.069;  167.792; 4.94716; 0.14562
 352.77;  192.930;  202.070;  191.517;-4.91846;-0.14501
 353.36;  202.292;  169.070;  200.529;17.92931; 0.52951
 353.95;  203.308;  198.070;  201.571; 2.88092; 0.08522
 354.54;  182.410;  191.071;  181.348;-4.82529;-0.14298
 355.13;  202.510;  188.069;  200.409; 8.16177; 0.24225
 355.72;  207.100;  190.070;  206.141; 9.80118; 0.29140
 356.32;  197.524;  183.069;  195.485; 8.53604; 0.25421
 356.91;  216.928;  188.070;  216.091;17.30223; 0.51612
 357.50;  200.561;  184.070;  199.295;10.00972; 0.29908
 358.09;  195.244;  169.070;  194.200;16.48206; 0.49329
 358.68;  200.868;  182.071;  199.544;12.03204; 0.36070
 359.27;  211.318;  198.068;  210.204; 8.78089; 0.26367
 359.86;  219.867;  203.068;  218.643;11.51940; 0.34647
 360.46;  192.077;  137.068;  191.107;39.27144; 1.18310
 361.05;  210.228;  179.069;  208.650;22.56554; 0.68093
 361.64;  205.153;  166.068;  204.447;29.52182; 0.89230
 362.23;  214.642;  182.070;  213.148;25.42357; 0.76969
 362.82;  213.705;  198.070;  212.789;12.44335; 0.37733
 363.41;  232.744;  173.069;  231.318;49.47860; 1.50283
 364.00;  351.256;  190.070;  351.285;138.96823; 4.22780
 364.59; 1321.157;  186.069; 1322.137;1003.49205;30.57861
 365.19; 2610.178;  166.069; 2597.988;2252.81267;68.75944
 365.78; 2039.507;  188.069; 2020.250;1751.43328;53.54306
 366.37;  918.710;  209.070;  910.109;688.80908;21.09160
 366.96;  495.075;  192.069;  489.923;299.62674; 9.18949
 367.55;  288.283;  220.068;  285.854;67.27792; 2.06672
 368.14;  234.185;  200.069;  232.260;33.73089; 1.03785
 368.73;  236.548;  197.070;  235.253;39.17973; 1.20744
 369.32;  240.673;  193.069;  239.144;48.10125; 1.48476
 369.91;  231.745;  213.069;  230.213;18.80582; 0.58141
 370.50;  241.511;  227.070;  239.562;14.49088; 0.44873
 371.09;  224.198;  203.069;  223.402;21.21487; 0.65799
 371.69;  220.201;  151.069;  218.441;69.28591; 2.15235
 372.28;  215.616;  155.070;  214.873;60.58681; 1.88511
 372.87;  250.646;  235.069;  249.212;15.48772; 0.48265
 373.46;  218.791;  158.069;  217.578;59.72662; 1.86424
 374.05;  239.687;  208.070;  237.746;31.20784; 0.97563
 374.64;  241.624;  188.069;  240.929;52.19279; 1.63424
 375.23;  232.483;  162.069;  230.403;68.08004; 2.13506
 375.82;  253.858;  208.069;  253.342;43.64609; 1.37094
 376.41;  251.507;  202.069;  250.176;47.04431; 1.48000
 377.00;  251.329;  197.070;  250.115;51.04509; 1.60838
 377.59;  244.918;  213.069;  243.384;28.86788; 0.91102
 378.18;  247.547;  194.069;  246.408;48.24213; 1.52482
 378.77;  245.284;  183.070;  243.735;55.60745; 1.76037
 379.36;  239.281;  166.068;  238.204;64.67224; 2.05052
 379.95;  261.102;  195.069;  259.616;57.84741; 1.83699
 380.54;  257.068;  225.069;  256.022;27.30325; 0.86838
 381.13;  270.927;  216.068;  269.602;46.23511; 1.47279
 381.72;  241.288;  164.071;  240.174;63.61408; 2.02953
 382.31;  276.559;  232.069;  274.996;36.27247; 1.15902
 382.90;  261.303;  216.069;  260.327;36.32030; 1.16233
 383.49;  307.165;  243.068;  306.616;50.99132; 1.63436
 384.08;  251.975;  183.069;  250.896;53.74769; 1.72535
 384.67;  278.567;  207.071;  277.448;55.08730; 1.77107
 385.26;  276.339;  221.071;  275.593;41.53629; 1.33745
 385.85;  260.567;  197.068;  259.238;47.14832; 1.52048
 386.44;  277.280;  176.069;  276.092;75.02372; 2.42313
 387.03;  289.640;  230.069;  288.433;43.32727; 1.40153
 387.62;  255.049;  190.069;  254.075;46.40116; 1.50325
 388.21;  290.382;  177.068;  288.811;80.26605; 2.60432
 388.80;  273.850;  233.070;  272.541;28.45750; 0.92474
 389.39;  279.602;  187.069;  278.370;63.74316; 2.07450
 389.98;  281.760;  174.068;  281.336;72.91277; 2.37652
 390.57;  282.494;  188.069;  280.942;63.51302; 2.07327
 391.16;  290.290;  201.069;  289.371;59.16021; 1.93410
 391.75;  298.893;  199.068;  297.538;65.75820; 2.15304
 392.34;  298.965;  218.069;  298.382;52.41840; 1.71886
 392.93;  296.636;  196.069;  295.151;64.34852; 2.11323
 393.52;  271.508;  167.068;  270.392;66.40354; 2.18399
 394.11;  278.489;  211.068;  277.155;42.52538; 1.40074
 394.70;  319.116;  222.068;  317.943;60.68426; 2.00186
 395.29;  298.849;  196.069;  297.562;63.54032; 2.09921
 395.88;  286.567;  193.068;  285.879;58.29283; 1.92871
 396.47;  303.493;  166.069;  301.788;84.13186; 2.78779
 397.05;  287.792;  186.069;  286.576;62.52283; 2.07483
 397.64;  301.854;  202.068;  300.153;60.90917; 2.02428
 398.23;  292.412;  187.069;  291.359;64.16784; 2.13574
 398.82;  294.126;  191.069;  292.733;62.10031; 2.06998
 399.41;  285.457;  190.069;  284.428;57.59439; 1.92262
 400.00;  280.596;  182.068;  280.162;59.65836; 1.99446
 400.59;  303.016;  186.068;  302.666;70.61228; 2.36414
 401.18;  297.347;  172.067;  296.138;75.95657; 2.54681
 401.77;  293.393;  206.067;  292.041;52.77331; 1.77208
 402.36;  312.463;  224.067;  311.200;53.32249; 1.79314
 402.95;  308.494;  170.066;  306.776;83.99293; 2.82867
 403.53;  412.981;  196.066;  412.151;131.25934; 4.42695
 404.12; 1366.984;  187.066; 1365.622;709.25403;23.95573
 404.71; 2848.903;  192.065; 2824.701;1606.86225;54.35238
 405.30; 2000.482;  203.063; 1972.524;1096.18779;37.13268
 405.89;  590.514;  180.063;  581.864;248.15065; 8.41816
 406.48;  332.031;  185.062;  329.813;89.16373; 3.02914
 407.07;  310.069;  180.062;  308.307;79.43901; 2.70267
 407.66;  416.558;  191.061;  415.068;139.19329; 4.74248
 408.24;  412.832;  182.061;  410.206;141.65644; 4.83337
 408.83;  317.287;  203.059;  315.894;70.45412; 2.40739
 409.42;  261.693;  181.059;  260.127;49.87824; 1.70677
 410.01;  273.280;  191.059;  271.922;50.96865; 1.74659
 410.60;  281.677;  198.058;  280.094;52.92868; 1.81636
 411.19;  248.506;  168.058;  247.347;50.69558; 1.74222
 411.78;  248.358;  188.057;  246.914;38.57058; 1.32743
 412.36;  253.394;  193.058;  252.127;38.38829; 1.32304
 412.95;  257.361;  196.059;  255.840;39.42957; 1.36087
 413.54;  279.959;  224.058;  279.036;35.93342; 1.24197
 414.13;  270.404;  195.060;  268.949;48.90971; 1.69287
 414.72;  251.925;  169.061;  250.445;53.81276; 1.86522
 415.31;  252.664;  207.062;  251.147;29.89245; 1.03758
 415.89;  233.373;  187.062;  232.799;30.47822; 1.05941
 416.48;  249.513;  179.062;  248.138;46.83570; 1.63030
 417.07;  237.994;  182.064;  237.549;37.36316; 1.30241
 417.66;  267.468;  203.064;  266.217;43.25124; 1.50978
 418.25;  251.468;  202.061;  250.485;33.65755; 1.17654
 418.83;  246.447;  218.062;  244.791;19.31922; 0.67628
 419.42;  250.687;  212.062;  249.662;26.40716; 0.92569
 420.01;  252.464;  194.062;  250.590;40.17890; 1.41043
 420.60;  250.404;  198.062;  249.243;36.36346; 1.27828
 421.19;  270.540;  202.062;  268.800;47.99889; 1.68966
 421.77;  225.594;  166.062;  224.546;42.26760; 1.48998
 422.36;  253.247;  175.062;  251.616;55.31137; 1.95251
 422.95;  241.441;  192.064;  240.322;35.43258; 1.25252
 423.54;  256.642;  220.065;  255.533;26.31662; 0.93157
 424.12;  247.486;  264.065;  246.995;-11.98447;-0.42482
 424.71;  247.037;  202.062;  245.120;32.80718; 1.16455
 425.30;  253.433;  202.064;  252.778;37.58615; 1.33603
 425.89;  251.484;  229.063;  249.808;16.42436; 0.58463
 426.48;  241.861;  249.063;  241.319;-5.30205;-0.18899
 427.06;  234.239;  211.061;  232.660;17.19635; 0.61379
 427.65;  247.766;  208.063;  246.598;29.30279; 1.04735
 428.24;  225.314;  166.064;  224.053;44.07394; 1.57747
 428.83;  235.522;  193.063;  234.171;31.36530; 1.12415
 429.41;  246.663;  191.063;  244.781;41.43782; 1.48719
 430.00;  233.576;  204.063;  232.652;22.01193; 0.79108
 430.59;  267.837;  261.063;  265.345; 5.00296; 0.18005
 431.17;  251.192;  220.063;  250.147;23.20326; 0.83617
 431.76;  253.488;  209.063;  251.124;33.10749; 1.19472
 432.35;  265.668;  206.064;  265.154;44.38361; 1.60380
 432.94;  269.095;  225.064;  267.247;32.68734; 1.18276
 433.52;  286.175;  249.066;  284.348;27.34730; 0.99088
 434.11;  332.491;  251.064;  330.245;59.87545; 2.17242
 434.70;  499.140;  249.064;  499.517;184.14065; 6.69008
 435.29; 2505.361;  240.065; 2509.315;1667.51666;60.66494
 435.87; 5579.810;  195.063; 5540.186;3936.44277;143.40255
 436.46; 3727.614;  243.065; 3672.949;2540.30777;92.66671
 437.05;  810.148;  210.065;  794.604;436.91597;15.95949
 437.63;  315.950;  227.064;  312.726;64.41620; 2.35613
 438.22;  272.133;  207.063;  270.829;46.82134; 1.71486
 438.81;  274.956;  212.064;  273.448;45.21977; 1.65842
 439.39;  239.831;  186.064;  238.867;38.54959; 1.41569
 439.98;  253.290;  220.065;  251.594;23.45494; 0.86250
 440.57;  246.022;  208.064;  244.779;26.89849; 0.99045
 441.15;  238.298;  190.064;  236.612;33.67996; 1.24181
 441.74;  242.974;  223.065;  241.815;13.93433; 0.51445
 442.33;  249.107;  218.065;  247.311;21.50979; 0.79520
 442.91;  241.909;  219.065;  240.412;15.74992; 0.58303
 443.50;  233.280;  229.064;  231.746; 2.87906; 0.10672
 444.09;  222.744;  226.064;  221.485;-2.23971;-0.08313
 444.67;  256.116;  232.065;  254.396;15.92332; 0.59179
 445.26;  233.841;  202.065;  233.103;21.09503; 0.78503
 445.85;  249.074;  208.064;  246.411;27.05642; 1.00821
 446.43;  232.528;  229.065;  231.136; 2.26452; 0.08449
 447.02;  232.999;  212.065;  231.548;13.63442; 0.50940
 447.61;  214.727;  145.065;  213.281;44.64777; 1.67028
 448.19;  238.071;  224.066;  236.677; 8.88694; 0.33290
 448.78;  228.604;  185.065;  227.479;27.29848; 1.02392
 449.36;  231.318;  219.066;  230.063; 7.64828; 0.28725
 449.95;  225.022;  215.066;  223.727; 6.15387; 0.23142
 450.54;  222.243;  209.065;  220.653; 8.04843; 0.30306
 451.12;  243.766;  245.066;  242.816;-0.78831;-0.02972
 451.71;  207.921;  199.066;  206.568; 5.32111; 0.20089
 452.30;  233.541;  216.066;  232.287;10.34899; 0.39121
 452.88;  224.342;  190.065;  222.385;20.28584; 0.76784
 453.47;  207.495;  193.065;  206.555; 8.43284; 0.31960
 454.05;  215.827;  161.066;  214.389;31.78769; 1.20631
 454.64;  226.248;  198.065;  225.509;16.27533; 0.61843
 455.22;  241.326;  231.066;  239.459; 5.83114; 0.22186
 455.81;  204.784;  204.066;  203.971; 0.40878; 0.01557
 456.40;  240.796;  207.065;  239.299;18.96632; 0.72347
 456.98;  215.709;  193.066;  214.554;12.66821; 0.48385
 457.57;  232.703;  226.067;  231.236; 3.67254; 0.14045
 458.15;  238.486;  214.066;  237.294;13.47070; 0.51582
 458.74;  223.948;  211.066;  222.022; 7.11514; 0.27280
 459.33;  229.094;  200.066;  228.220;15.88287; 0.60974
 459.91;  230.049;  211.065;  228.183;10.33476; 0.39725
 460.50;  228.486;  188.065;  227.534;21.93271; 0.84414
 461.08;  220.314;  196.066;  218.687;13.07563; 0.50389
 461.67;  223.137;  192.066;  221.441;16.65673; 0.64271
 462.25;  226.187;  223.067;  224.622; 1.67850; 0.06485
 462.84;  195.788;  170.066;  195.057;13.69493; 0.52976
 463.42;  214.969;  197.067;  213.261; 9.55147; 0.36995
 464.01;  217.787;  211.067;  216.526; 3.56424; 0.13823
 464.59;  227.409;  205.067;  225.581;11.83208; 0.45944
 465.18;  214.872;  184.066;  213.049;16.32219; 0.63459
 465.76;  220.135;  166.067;  218.247;28.60727; 1.11362
 466.35;  218.941;  183.067;  218.172;18.85700; 0.73498
 466.94;  228.935;  208.066;  227.155;10.92953; 0.42653
 467.52;  238.528;  209.067;  237.460;15.39348; 0.60149
 468.11;  202.338;  175.068;  200.790;14.31837; 0.56018
 468.69;  197.835;  188.067;  196.765; 5.09192; 0.19946
 469.28;  188.144;  172.067;  186.754; 8.35130; 0.32755
 469.86;  223.347;  207.068;  222.525; 8.46866; 0.33257
 470.45;  216.652;  191.067;  215.458;13.30826; 0.52327
 471.03;  197.304;  192.068;  196.040; 2.72168; 0.10715
 471.62;  208.960;  231.069;  206.769;-11.44638;-0.45118
 472.20;  211.372;  235.067;  210.575;-12.29196;-0.48511
 472.79;  247.015;  224.067;  245.666;11.86973; 0.46903
 473.37;  210.496;  214.067;  209.758;-1.86053;-0.07361
 473.95;  209.248;  209.067;  207.314; 0.09422; 0.00373
 474.54;  168.487;  150.067;  167.311; 9.61802; 0.38146
 475.12;  236.011;  246.068;  234.405;-5.25009;-0.20848
 475.71;  215.506;  195.069;  214.801;10.74493; 0.42721
 476.29;  221.424;  196.068;  219.487;13.38486; 0.53282
 476.88;  196.735;  181.069;  195.930; 8.25015; 0.32882
 477.46;  197.515;  186.068;  195.657; 6.04318; 0.24116
 478.05;  203.695;  188.068;  202.488; 8.30687; 0.33190
 478.63;  207.831;  184.069;  206.415;12.57732; 0.50313
 479.22;  187.669;  167.068;  186.945;10.94328; 0.43830
 479.80;  212.927;  201.068;  211.444; 6.33112; 0.25388
 480.38;  208.979;  178.068;  207.651;16.57324; 0.66541
 480.97;  191.633;  169.068;  189.564;12.09091; 0.48604
 481.55;  202.962;  197.068;  202.041; 3.17647; 0.12784
 482.14;  224.946;  228.068;  223.144;-1.68240;-0.06779
 482.72;  198.378;  229.069;  197.545;-16.61593;-0.67037
 483.31;  195.433;  194.068;  193.636; 0.74174; 0.02996
 483.89;  199.764;  205.069;  199.001;-2.90128;-0.11734
 484.47;  199.816;  177.068;  197.810;12.44290; 0.50383
 485.06;  189.269;  177.068;  188.588; 6.72805; 0.27276
 485.64;  213.684;  233.068;  212.099;-10.75089;-0.43637
 486.23;  217.971;  196.068;  217.186;12.22943; 0.49698
 486.81;  211.772;  203.069;  209.975; 4.85803; 0.19766
 487.39;  180.450;  183.069;  179.769;-1.46851;-0.05982
 487.98;  193.704;  169.069;  192.361;13.93037; 0.56814
 488.56;  222.270;  211.068;  221.396; 6.34629; 0.25914
 489.15;  193.007;  211.069;  191.586;-10.34916;-0.42309
 489.73;  195.842;  226.069;  195.039;-17.38061;-0.71140
 490.31;  196.444;  188.069;  194.763; 4.82254; 0.19763
 490.90;  198.740;  173.068;  197.118;14.95839; 0.61372
 491.48;  209.373;  180.069;  208.046;17.21681; 0.70722
 492.06;  220.589;  196.069;  219.813;14.36321; 0.59070
 492.65;  184.669;  188.070;  182.962;-2.01444;-0.08294
 493.23;  171.491;  175.069;  170.560;-2.14002;-0.08822
 493.82;  206.326;  191.068;  204.190; 9.11011; 0.37599
 494.40;  171.150;  165.069;  170.517; 3.67401; 0.15181
 494.98;  190.545;  195.068;  189.401;-2.74736;-0.11366
 495.57;  170.497;  149.069;  169.638;13.11618; 0.54325
 496.15;  168.093;  194.069;  167.170;-16.03878;-0.66509
 496.73;  182.337;  180.069;  181.016; 1.40847; 0.05847
 497.32;  204.089;  205.070;  202.675;-0.60818;-0.02528
 497.90;  201.616;  166.069;  201.187;22.18943; 0.92338
 498.48;  177.145;  169.071;  175.832; 5.10170; 0.21255
 499.07;  183.377;  168.069;  182.346; 9.68200; 0.40385
 499.65;  202.270;  215.070;  201.050;-8.15341;-0.34048
 500.23;  168.022;  199.069;  167.245;-19.86840;-0.83067
 500.82;  180.098;  168.069;  178.596; 7.76029; 0.32482
 501.40;  182.576;  193.069;  181.515;-6.78867;-0.28449
 501.98;  196.726;  161.069;  194.887;23.06774; 0.96780
 502.56;  208.971;  190.070;  207.849;12.34775; 0.51865
 503.15;  209.500;  210.070;  207.963;-0.37272;-0.01567
 503.73;  192.577;  183.069;  191.213; 6.25326; 0.26327
 504.31;  194.729;  187.070;  192.942; 5.05394; 0.21302
 504.90;  202.534;  213.070;  201.524;-6.99695;-0.29526
 505.48;  215.336;  200.070;  213.800;10.15249; 0.42891
 506.06;  200.885;  214.069;  200.218;-8.82866;-0.37342
 506.64;  187.205;  162.069;  185.652;16.86198; 0.71401
 507.23;  193.207;  204.069;  192.320;-7.31012;-0.30990
 507.81;  204.498;  157.069;  202.780;31.91574; 1.35456
 508.39;  192.961;  195.068;  191.654;-1.42107;-0.06038
 508.97;  201.937;  174.070;  199.918;18.81474; 0.80037
 509.56;  210.894;  226.069;  209.829;-10.29523;-0.43845
 510.14;  177.289;  137.070;  175.880;27.17038; 1.15845
 510.72;  193.990;  197.069;  193.344;-2.09216;-0.08930
 511.30;  203.859;  188.070;  202.576;10.69985; 0.45725
 511.89;  202.134;  216.069;  201.363;-9.47256;-0.40526
 512.47;  197.478;  188.070;  195.975; 6.36353; 0.27256
 513.05;  193.921;  187.070;  192.669; 4.67939; 0.20065
 513.63;  194.796;  181.068;  193.307; 9.37405; 0.40242
 514.22;  205.450;  195.071;  204.618; 7.02807; 0.30205
 514.80;  204.432;  223.070;  203.236;-12.62007;-0.54299
 515.38;  195.498;  187.069;  194.736; 5.70924; 0.24592
 515.96;  217.342;  214.070;  215.845; 2.21972; 0.09572
 516.55;  189.366;  207.070;  188.530;-12.04223;-0.51989
 517.13;  201.228;  216.070;  199.679;-10.16725;-0.43944
 517.71;  185.623;  170.069;  184.615;10.69586; 0.46280
 518.29;  186.999;  190.070;  185.139;-2.11358;-0.09156
 518.87;  199.364;  204.069;  198.235;-3.25360;-0.14110
 519.46;  191.112;  234.070;  189.507;-29.78813;-1.29326
 520.04;  194.184;  169.070;  193.575;17.26749; 0.75051
 520.62;  183.649;  182.069;  181.989; 1.09428; 0.04761
 521.20;  180.085;  208.069;  179.454;-19.44289;-0.84695
 521.78;  197.128;  195.069;  195.762; 1.42274; 0.06205
 522.36;  192.742;  194.069;  192.098;-0.91817;-0.04009
 522.95;  192.638;  191.069;  191.278; 1.08634; 0.04748
 523.53;  180.636;  170.069;  179.953; 7.32098; 0.32033
 524.11;  192.581;  163.070;  190.820;20.26260; 0.88759
 524.69;  187.561;  236.070;  186.432;-33.43670;-1.46629
 525.27;  189.976;  184.070;  188.560; 4.06836; 0.17861
 525.85;  200.443;  182.070;  199.408;12.61473; 0.55442
 526.44;  200.353;  212.069;  199.220;-8.00795;-0.35234
 527.02;  209.173;  210.069;  207.529;-0.61044;-0.02689
 527.60;  202.525;  181.069;  200.751;14.61708; 0.64455
 528.18;  185.579;  195.069;  184.521;-6.44143;-0.28435
 528.76;  214.804;  220.069;  213.221;-3.56713;-0.15764
 529.34;  199.591;  185.069;  198.458; 9.80816; 0.43393
 529.92;  216.890;  214.069;  215.360; 1.88680; 0.08357
 530.51;  206.365;  181.070;  204.989;16.90823; 0.74969
 531.09;  198.008;  180.069;  196.483;11.96400; 0.53105
 531.67;  192.244;  181.070;  191.529; 7.42699; 0.33003
 532.25;  216.489;  245.069;  214.847;-18.90865;-0.84114
 532.83;  217.052;  218.069;  215.728;-0.67488;-0.03005
 533.41;  193.304;  207.069;  191.697;-9.00538;-0.40147
 533.99;  218.150;  223.070;  216.939;-3.20093;-0.14286
 534.57;  235.996;  219.070;  234.686;10.98834; 0.49095
 535.15;  199.602;  177.071;  198.566;14.55711; 0.65110
 535.74;  194.412;  194.069;  193.094; 0.22024; 0.00986
 536.32;  199.633;  236.070;  198.460;-23.37868;-1.04794
 536.90;  189.565;  172.068;  189.059;11.24020; 0.50438
 537.48;  203.941;  182.069;  203.509;13.88262; 0.62363
 538.06;  222.595;  251.069;  220.889;-18.02256;-0.81048
 538.64;  209.044;  220.069;  208.206;-6.95585;-0.31314
 539.22;  200.847;  157.070;  198.983;27.53175; 1.24078
 539.80;  207.421;  239.070;  206.729;-19.88944;-0.89732
 540.38;  223.123;  210.070;  221.523; 8.16017; 0.36855
 540.96;  192.512;  154.069;  191.617;23.85198; 1.07841
 541.54;  201.998;  199.070;  201.369; 1.81592; 0.08219
 542.12;  247.093;  257.069;  245.893;-6.16364;-0.27927
 542.70;  198.260;  200.070;  197.070;-1.11876;-0.05074
 543.28;  223.634;  204.069;  222.532;12.02771; 0.54614
 543.86;  229.621;  184.070;  228.149;28.03121; 1.27417
 544.44;  308.506;  234.070;  307.535;44.98617; 2.04704
 545.02;  506.546;  209.069;  507.313;180.51432; 8.22284
 545.61; 3258.013;  199.070; 3254.256;1846.59378;84.20611
 546.19; 5565.339;  227.070; 5509.464;3218.27009;146.91169
 546.77; 2550.332;  195.070; 2502.492;1417.30399;64.76763
 547.35;  516.922;  204.070;  508.682;185.94152; 8.50613
 547.93;  267.021;  223.069;  264.805;26.13894; 1.19703
 548.51;  239.968;  176.069;  237.798;37.83643; 1.73454
 549.09;  238.928;  210.070;  236.886;17.03415; 0.78173
 549.67;  232.791;  224.070;  230.586; 5.12827; 0.23559
 550.25;  210.944;  197.069;  209.776; 8.14430; 0.37455
 550.83;  232.954;  230.070;  231.194; 1.68615; 0.07763
 551.41;  217.723;  209.070;  216.577; 5.04748; 0.23262
 551.99;  214.165;  210.069;  212.792; 2.38176; 0.10988
 552.57;  214.933;  217.069;  214.222;-1.23658;-0.05711
 553.15;  232.686;  239.069;  230.676;-3.68357;-0.17030
 553.73;  191.688;  170.070;  190.612;12.40718; 0.57420
 554.30;  221.973;  217.070;  220.451; 2.80624; 0.13001
 554.88;  208.235;  186.069;  207.223;12.68596; 0.58833
 555.46;  217.421;  207.070;  215.473; 5.87380; 0.27269
 556.04;  210.017;  218.069;  208.774;-4.55984;-0.21191
 556.62;  232.490;  256.069;  230.704;-13.34749;-0.62095
 557.20;  195.144;  183.069;  193.958; 6.81305; 0.31728
 557.78;  218.030;  204.070;  216.555; 7.81666; 0.36440
 558.36;  231.156;  234.069;  230.461;-1.62814;-0.07598
 558.94;  229.542;  232.069;  228.152;-1.40994;-0.06587
 559.52;  202.127;  203.069;  201.631;-0.52369;-0.02449
 560.10;  218.430;  230.069;  216.446;-6.46923;-0.30284
 560.68;  218.177;  209.069;  216.865; 5.02313; 0.23539
 561.26;  238.160;  230.070;  236.072; 4.46125; 0.20927
 561.84;  196.733;  175.070;  195.366;12.00392; 0.56367
 562.42;  211.674;  246.067;  210.211;-18.96189;-0.89132
 563.00;  217.703;  224.070;  216.501;-3.49587;-0.16450
 563.58;  214.934;  197.069;  213.468; 9.80286; 0.46174
 564.15;  213.259;  220.069;  212.158;-3.73415;-0.17607
 564.73;  220.734;  202.069;  219.097;10.17249; 0.48014
 565.31;  231.181;  254.069;  230.091;-12.49730;-0.59047
 565.89;  195.676;  143.069;  195.044;28.75100; 1.35982
 566.47;  206.823;  193.068;  205.993; 7.49506; 0.35485
 567.05;  227.976;  221.070;  226.638; 3.76408; 0.17839
 567.63;  212.097;  216.069;  210.822;-2.15679;-0.10232
 568.21;  204.340;  216.069;  203.441;-6.34358;-0.30126
 568.79;  229.320;  210.069;  228.081;10.39330; 0.49408
 569.36;  252.510;  259.068;  251.837;-3.53823;-0.16837
 569.94;  206.043;  209.068;  204.974;-1.64296;-0.07826
 570.52;  226.272;  247.070;  224.452;-11.19973;-0.53404
 571.10;  175.380;  183.069;  173.950;-4.14201;-0.19771
 571.68;  216.618;  194.068;  215.375;12.13779; 0.57994
 572.26;  224.050;  226.069;  223.075;-1.08555;-0.05192
 572.84;  230.157;  237.069;  228.942;-3.72708;-0.17844
 573.41;  208.463;  248.069;  207.378;-21.33790;-1.02262
 573.99;  251.511;  240.068;  250.150; 6.17678; 0.29632
 574.57;  216.843;  176.068;  215.987;21.94353; 1.05377
 575.15;  252.119;  226.068;  250.291;14.05557; 0.67565
 575.73;  256.753;  219.068;  255.361;20.41631; 0.98240
 576.31;  555.649;  191.069;  554.478;198.08507; 9.54112
 576.88; 1087.233;  199.069; 1081.155;480.29961;23.15769
 577.46;  802.800;  207.069;  793.446;321.86719;15.53441
 578.04;  350.490;  206.069;  348.601;78.31795; 3.78368
 578.62;  837.184;  190.070;  834.915;353.57753;17.09903
 579.20; 1151.455;  206.069; 1143.102;517.30259;25.04178
 579.78;  572.928;  226.069;  565.341;189.06336; 9.16138
 580.35;  254.316;  230.067;  252.074;13.23722; 0.64207
 580.93;  213.221;  208.070;  211.588; 2.81946; 0.13689
 581.51;  224.172;  222.068;  222.586; 1.15238; 0.05601
 582.09;  201.518;  206.069;  199.601;-2.49991;-0.12162
 582.67;  200.046;  204.069;  198.456;-2.21263;-0.10775
 583.24;  202.292;  216.069;  200.550;-7.59833;-0.37039
 583.82;  205.098;  201.069;  204.018; 2.21882; 0.10827
 584.40;  202.687;  206.068;  201.141;-1.87453;-0.09156
 584.98;  200.522;  236.069;  199.478;-19.65755;-0.96108
 585.55;  214.081;  195.068;  212.408;10.50093; 0.51391
 586.13;  187.247;  183.068;  186.125; 2.30461; 0.11290
 586.71;  209.440;  211.069;  207.550;-0.89980;-0.04412
 587.29;  202.698;  220.069;  201.367;-9.58310;-0.47038
 587.86;  204.763;  215.068;  203.177;-5.70661;-0.28038
 588.44;  167.897;  174.068;  166.709;-3.41726;-0.16806
 589.02;  218.573;  210.068;  217.206; 4.71662; 0.23220
 589.60;  196.680;  180.069;  195.888; 9.23811; 0.45523
 590.17;  209.937;  205.068;  208.143; 2.71638; 0.13399
 590.75;  186.271;  180.067;  185.231; 3.48075; 0.17186
 591.33;  185.983;  224.068;  184.796;-21.46128;-1.06067
 591.91;  196.248;  196.070;  194.784; 0.10098; 0.00500
 592.48;  189.443;  169.069;  188.356;11.60816; 0.57482
 593.06;  208.230;  177.069;  207.143;17.78797; 0.88170
 593.64;  203.380;  211.069;  202.345;-4.41851;-0.21923
 594.21;  189.246;  197.068;  188.240;-4.53506;-0.22523
 594.79;  201.572;  189.068;  199.848; 7.26993; 0.36140
 595.37;  203.877;  185.068;  202.607;10.97420; 0.54608
 595.95;  186.332;  175.069;  184.790; 6.61097; 0.32928
 596.52;  190.801;  182.068;  189.804; 5.11941; 0.25524
 597.10;  198.242;  195.069;  196.506; 1.87187; 0.09341
 597.68;  183.185;  153.068;  181.878;17.75623; 0.88697
 598.25;  207.519;  215.068;  205.859;-4.49141;-0.22458
 598.83;  184.717;  196.068;  183.373;-6.81511;-0.34109
 599.41;  199.816;  194.068;  198.274; 3.45977; 0.17333
 599.98;  224.689;  234.069;  223.101;-5.66006;-0.28383
 600.56;  213.136;  209.067;  211.465; 2.47385; 0.12417
 601.14;  198.331;  232.068;  197.119;-20.54110;-1.03203
 601.71;  202.032;  219.069;  200.322;-10.41868;-0.52396
 602.29;  188.156;  194.068;  186.949;-3.62698;-0.18258
 602.87;  211.525;  210.068;  210.567; 0.89979; 0.04534
 603.44;  206.157;  207.068;  205.035;-0.56497;-0.02849
 604.02;  199.605;  157.068;  198.021;26.46837; 1.33620
 604.60;  217.829;  244.068;  217.296;-16.40582;-0.82900
 605.17;  224.257;  232.067;  223.074;-4.92523;-0.24911
 605.75;  214.994;  180.069;  213.710;22.01082; 1.11435
 606.33;  206.634;  214.068;  205.364;-4.71842;-0.23911
 606.90;  227.632;  233.068;  226.341;-3.45821;-0.17541
 607.48;  216.025;  225.068;  214.698;-5.80780;-0.29487
 608.05;  194.729;  223.067;  193.587;-18.24671;-0.92730
 608.63;  203.042;  191.067;  201.671; 7.75740; 0.39461
 609.21;  193.226;  182.068;  191.582; 7.27764; 0.37055
 609.78;  221.540;  207.068;  219.962; 9.41655; 0.47991
 610.36;  208.473;  191.067;  207.229;11.39580; 0.58133
 610.93;  213.590;  224.066;  212.139;-6.91183;-0.35292
 611.51;  195.442;  202.068;  194.288;-4.36741;-0.22321
 612.09;  223.684;  230.068;  222.213;-4.24109;-0.21696
 612.66;  206.193;  216.067;  205.301;-6.58726;-0.33730
 613.24;  219.365;  200.066;  217.650;12.89651; 0.66099
 613.81;  224.139;  203.067;  222.991;14.17340; 0.72712
 614.39;  219.174;  240.068;  217.674;-14.10884;-0.72448
 614.96;  234.682;  230.068;  233.818; 3.11849; 0.16028
 615.54;  219.127;  215.067;  217.483; 2.76848; 0.14243
 616.12;  227.444;  201.067;  226.129;17.96346; 0.92501
 616.69;  185.902;  186.068;  184.323;-0.11388;-0.00587
 617.27;  214.474;  183.068;  212.911;21.66416; 1.11766
 617.84;  196.055;  182.068;  193.897; 9.67651; 0.49968
 618.42;  229.063;  224.067;  227.590; 3.47416; 0.17957
 618.99;  213.100;  195.067;  211.552;12.55640; 0.64960
 619.57;  231.099;  216.068;  230.207;10.51553; 0.54452
 620.14;  221.562;  212.067;  219.830; 6.66904; 0.34566
 620.72;  200.090;  172.067;  199.309;19.73534; 1.02384
 621.30;  224.070;  227.069;  222.398;-2.11980;-0.11007
 621.87;  231.538;  206.066;  230.361;18.10480; 0.94099
 622.45;  221.808;  181.068;  220.061;29.09931; 1.51383
 623.02;  194.876;  169.067;  193.981;18.47462; 0.96199
 623.60;  205.748;  187.066;  204.278;13.44787; 0.70089
 624.17;  212.243;  204.067;  210.958; 5.86926; 0.30618
 624.75;  222.598;  200.067;  220.137;16.31122; 0.85169
 625.32;  209.281;  193.067;  208.458;11.77527; 0.61541
 625.90;  213.710;  227.066;  211.965;-9.75729;-0.51042
 626.47;  226.340;  240.067;  225.220;-10.03734;-0.52555
 627.05;  196.630;  189.065;  195.063; 5.54481; 0.29059
 627.62;  214.151;  211.067;  212.979; 2.27386; 0.11928
 628.20;  235.964;  245.067;  233.914;-6.70825;-0.35221
 628.77;  228.684;  216.066;  227.627; 9.34628; 0.49116
 629.34;  248.196;  249.065;  246.959;-0.64435;-0.03389
 629.92;  205.096;  161.066;  203.761;32.81687; 1.72773
 630.49;  230.526;  222.066;  228.904; 6.32965; 0.33354
 631.07;  205.616;  199.067;  204.312; 4.91027; 0.25899
 631.64;  204.581;  193.067;  203.111; 8.65147; 0.45673
 632.22;  248.021;  247.066;  246.837; 0.71989; 0.03804
 632.79;  223.020;  241.066;  221.275;-13.62329;-0.72050
 633.37;  229.826;  210.067;  228.563;14.99767; 0.79391
 633.94;  224.599;  186.066;  222.631;29.36741; 1.55600
 634.52;  217.951;  195.067;  217.020;17.45933; 0.92590
 635.09;  232.146;  208.067;  230.541;18.39734; 0.97653
 635.66;  198.555;  215.066;  197.408;-12.61741;-0.67034
 636.24;  212.503;  200.068;  210.984; 9.55774; 0.50824
 636.81;  253.329;  240.066;  252.326;10.18725; 0.54220
 637.39;  235.824;  220.065;  233.903;12.11316; 0.64529
 637.96;  231.413;  223.066;  231.150; 6.43084; 0.34289
 638.54;  232.777;  250.066;  230.708;-13.37447;-0.71377
 639.11;  210.356;  225.067;  209.058;-11.41652;-0.60982
 639.68;  234.907;  221.067;  232.765;10.77449; 0.57604
 640.26;  218.028;  201.066;  216.537;13.20412; 0.70657
 640.83;  220.010;  216.066;  218.213; 3.08253; 0.16510
 641.41;  213.433;  188.066;  212.304;19.76627; 1.05962
 641.98;  219.320;  211.066;  217.764; 6.47163; 0.34724
 642.55;  198.321;  177.066;  197.321;16.65591; 0.89448
 643.13;  215.179;  231.066;  214.107;-12.46314;-0.66991
 643.70;  233.741;  235.067;  232.847;-1.04474;-0.05621
 644.27;  219.965;  205.067;  218.677;11.68310; 0.62910
 644.85;  210.369;  192.067;  209.942;14.47652; 0.78022
 645.42;  217.504;  227.067;  215.899;-7.54843;-0.40719
 645.99;  208.436;  190.067;  207.492;14.54800; 0.78546
 646.57;  211.748;  220.067;  210.121;-6.57949;-0.35555
 647.14;  218.060;  219.067;  217.002;-0.79648;-0.04308
 647.72;  196.156;  191.067;  194.840; 4.04510; 0.21898
 648.29;  209.424;  184.067;  208.412;20.06096; 1.08696
 648.86;  233.512;  210.067;  231.717;18.64266; 1.01101
 649.44;  200.204;  221.067;  199.109;-16.58887;-0.90042
 650.01;  210.429;  194.067;  209.288;13.03528; 0.70816
 650.58;  220.943;  230.067;  219.645;-7.27762;-0.39572
 651.16;  217.417;  231.067;  215.826;-10.90116;-0.59327
 651.73;  205.816;  196.067;  204.601; 7.74905; 0.42209
 652.30;  223.713;  223.067;  222.079; 0.51545; 0.02810
 652.87;  209.825;  202.067;  208.553; 6.19963; 0.33829
 653.45;  229.653;  244.067;  228.196;-11.52019;-0.62916
 654.02;  204.081;  208.067;  203.029;-3.18920;-0.17433
 654.59;  214.323;  211.067;  212.563; 2.60879; 0.14273
 655.17;  218.275;  224.067;  217.304;-4.59785;-0.25177
 655.74;  202.992;  178.067;  201.571;19.83860; 1.08727
 656.31;  214.489;  209.067;  213.491; 4.31193; 0.23652
 656.89;  216.877;  209.067;  214.739; 6.18933; 0.33980
 657.46;  222.377;  198.067;  221.505;19.29394; 1.06019
 658.03;  228.783;  237.067;  227.696;-6.57105;-0.36139
 658.60;  211.885;  226.067;  211.182;-11.20950;-0.61703
 659.18;  226.810;  229.067;  225.206;-1.77402;-0.09774
 659.75;  210.841;  221.067;  209.641;-8.01548;-0.44198
 660.32;  230.250;  220.067;  228.577; 7.96719; 0.43970
 660.89;  209.568;  225.067;  208.384;-12.10051;-0.66839
 661.47;  228.964;  236.067;  227.302;-5.52810;-0.30562
 662.04;  229.610;  215.067;  229.072;11.27872; 0.62408
 662.61;  211.922;  211.067;  210.265; 0.65979; 0.03654
 663.18;  218.862;  225.067;  217.366;-4.74659;-0.26309
 663.76;  200.095;  211.067;  198.114;-8.41472;-0.46681
 664.33;  225.529;  227.067;  224.276;-1.17181;-0.06506
 664.90;  219.598;  248.067;  218.228;-21.63159;-1.20210
 665.47;  214.677;  196.067;  213.334;14.13961; 0.78643
 666.05;  207.179;  201.067;  205.629; 4.61649; 0.25699
 666.62;  242.364;  278.067;  241.144;-27.00512;-1.50458
 667.19;  209.021;  196.067;  207.285; 9.82968; 0.54813
 667.76;  204.966;  193.067;  204.023; 9.02810; 0.50386
 668.33;  207.063;  191.067;  205.400;12.13992; 0.67811
 668.91;  198.409;  171.067;  197.565;20.88548; 1.16762
 669.48;  211.998;  220.067;  210.380;-6.15921;-0.34463
 670.05;  199.273;  213.067;  198.083;-10.59624;-0.59341
 670.62;  217.771;  241.067;  215.669;-17.87072;-1.00164
 671.19;  214.898;  210.068;  214.139; 3.71018; 0.20813
 671.76;  221.961;  226.068;  220.467;-3.16753;-0.17784
 672.34;  203.996;  201.068;  203.080; 2.26590; 0.12733
 672.91;  212.817;  195.068;  211.445;13.75393; 0.77353
 673.48;  203.564;  189.068;  202.911;11.27347; 0.63456
 674.05;  227.766;  240.068;  226.022;-9.59135;-0.54034
 674.62;  223.771;  210.068;  222.944;10.62310; 0.59897
 675.19;  216.343;  167.068;  214.620;38.25820; 2.15897
 675.77;  220.730;  204.068;  219.275;12.89722; 0.72843
 676.34;  194.092;  217.068;  191.771;-17.87315;-1.01032
 676.91;  210.104;  217.068;  208.803;-5.41678;-0.30645
 677.48;  213.539;  188.068;  211.508;19.85263; 1.12411
 678.05;  210.789;  202.068;  210.119; 6.76859; 0.38358
 678.62;  221.639;  219.068;  219.811; 1.99078; 0.11291
 679.19;  214.786;  223.068;  213.546;-6.39540;-0.36304
 679.77;  208.702;  213.068;  206.476;-3.38016;-0.19204
 680.34;  176.470;  185.068;  175.547;-6.60415;-0.37552
 680.91;  206.211;  208.068;  204.251;-1.42909;-0.08133
 681.48;  208.052;  218.068;  207.074;-7.69807;-0.43846
 682.05;  214.748;  196.068;  213.317;14.30788; 0.81562
 682.62;  186.223;  151.068;  185.277;26.98323; 1.53946
 683.19;  203.647;  203.068;  201.952; 0.44480; 0.02540
 683.76;  211.883;  223.068;  210.846;-8.57384;-0.48998
 684.33;  215.266;  194.068;  213.590;16.33096; 0.93406
 684.90;  193.417;  181.068;  192.513; 9.52147; 0.54504
 685.48;  196.201;  220.068;  194.596;-18.49010;-1.05931
 686.05;  193.384;  190.068;  192.314; 2.55352; 0.14642
 686.62;  212.925;  200.068;  211.142; 9.93682; 0.57024
 687.19;  192.948;  168.068;  192.189;19.36251; 1.11207
 687.76;  204.104;  219.068;  202.329;-11.55563;-0.66424
 688.33;  206.652;  189.068;  205.405;13.54834; 0.77943
 688.90;  203.737;  194.068;  201.908; 7.50395; 0.43206
 689.47;  166.454;  159.068;  165.542; 5.72720; 0.33003
 690.04;  194.837;  193.068;  193.228; 1.36995; 0.07901
 690.61;  208.513;  174.068;  207.285;26.65541; 1.53855
 691.18;  190.109;  187.068;  188.798; 2.34959; 0.13573
 691.75;  225.788;  234.068;  224.763;-6.38796;-0.36932
 692.32;  207.340;  242.068;  206.133;-26.86610;-1.55456
 692.89;  225.909;  207.068;  225.062;14.47023; 0.83798
 693.46;  210.964;  198.068;  208.951; 9.89321; 0.57339
 694.03;  201.639;  218.068;  200.543;-12.64787;-0.73365
 694.60;  215.114;  224.068;  213.450;-6.88965;-0.39997
 695.17;  210.606;  210.068;  210.028; 0.41266; 0.02398
 695.74;  262.908;  180.068;  263.362;63.51507; 3.69334
 696.31;  435.211;  218.068;  440.101;165.89294; 9.65442
 696.88;  397.451;  220.068;  399.781;135.34042; 7.88281
 697.45;  229.719;  199.068;  229.094;23.39769; 1.36390
 698.02;  184.631;  162.068;  183.049;17.22544; 1.00492
 698.59;  184.790;  185.069;  183.777;-0.21296;-0.01243
 699.16;  189.125;  176.069;  188.334; 9.97268; 0.58275
 699.73;  201.600;  189.069;  200.642; 9.52101; 0.55681
 700.30;  190.424;  168.069;  188.208;16.99553; 0.99475
 700.87;  208.415;  216.069;  207.998;-5.77915;-0.33853
 701.44;  207.568;  239.069;  206.120;-23.78375;-1.39433
 702.01;  201.937;  193.069;  201.006; 6.72407; 0.39452
 702.58;  223.733;  217.069;  222.113; 5.03612; 0.29572
 703.15;  189.193;  205.069;  187.898;-11.94327;-0.70188
 703.72;  209.531;  233.069;  208.018;-17.73886;-1.04332
 704.29;  184.148;  194.069;  182.701;-7.46149;-0.43921
 704.86;  215.246;  217.069;  213.595;-1.37009;-0.08071
 705.43;  206.977;  181.069;  205.760;19.39274; 1.14337
 706.00;  224.956;  201.069;  224.015;17.84410; 1.05291
 706.57;  254.419;  181.069;  254.596;54.87376; 3.24049
 707.14;  230.073;  182.069;  229.232;35.92637; 2.12329
 707.70;  234.786;  213.069;  233.910;16.24520; 0.96088
 708.27;  197.364;  179.069;  195.786;13.66897; 0.80915
 708.84;  194.861;  191.069;  194.556; 2.83440; 0.16792
 709.41;  176.996;  187.069;  175.312;-7.52551;-0.44620
 709.98;  221.416;  238.069;  220.398;-12.40999;-0.73640
 710.55;  196.791;  201.069;  195.263;-3.19209;-0.18957
 711.12;  216.613;  196.069;  215.301;15.28235; 0.90829
 711.69;  212.001;  238.069;  210.504;-19.31689;-1.14900
 712.26;  211.109;  218.069;  210.462;-5.17006;-0.30777
 712.83;  227.711;  236.069;  226.206;-6.16531;-0.36731
 713.39;  212.273;  213.069;  210.996;-0.59028;-0.03520
 713.96;  226.030;  223.069;  224.734; 2.19064; 0.13072
 714.53;  219.222;  216.069;  218.205; 2.33581; 0.13949
 715.10;  215.963;  208.069;  214.511; 5.84327; 0.34923
 715.67;  192.404;  183.069;  191.235; 6.91164; 0.41342
 716.24;  210.359;  213.069;  208.650;-2.00529;-0.12004
 716.81;  227.951;  210.069;  227.069;13.18573; 0.78995
 717.37;  212.046;  209.069;  210.823; 2.20722; 0.13234
 717.94;  218.371;  225.069;  217.174;-4.94992;-0.29702
 718.51;  220.071;  222.069;  218.508;-1.47410;-0.08852
 719.08;  203.133;  201.069;  201.513; 1.52502; 0.09165
 719.65;  227.883;  222.069;  226.171; 4.29518; 0.25834
 720.22;  223.340;  225.069;  222.212;-1.27966;-0.07703
 720.78;  216.062;  235.069;  214.581;-14.01382;-0.84422
 721.35;  203.243;  196.069;  202.044; 5.28615; 0.31870
 721.92;  232.055;  247.069;  230.611;-11.06604;-0.66769
 722.49;  218.856;  216.069;  218.114; 2.05558; 0.12412
 723.06;  215.530;  227.069;  214.094;-8.52920;-0.51544
 723.63;  185.250;  170.069;  184.421;11.22702; 0.67900
 724.19;  226.482;  221.069;  224.993; 3.97903; 0.24084
 724.76;  205.486;  222.069;  204.163;-12.25835;-0.74254
 725.33;  215.828;  217.069;  214.363;-0.91599;-0.05553
 725.90;  235.364;  206.070;  234.640;21.57185; 1.30875
 726.46;  236.271;  208.070;  234.840;20.84879; 1.26587
 727.03;  301.065;  209.070;  301.629;67.83296; 4.12181
 727.60;  231.175;  176.070;  230.032;40.71381; 2.47587
 728.17;  230.418;  213.070;  229.421;12.83319; 0.78102
 728.74;  225.870;  216.070;  224.458; 7.26769; 0.44265
 729.30;  209.014;  219.070;  207.974;-7.45458;-0.45439
 729.87;  209.047;  195.070;  207.478;10.34306; 0.63094
 730.44;  232.945;  213.070;  231.996;14.73563; 0.89959
 731.01;  224.990;  249.070;  223.521;-17.88773;-1.09287
 731.57;  206.532;  193.070;  205.458;10.01130; 0.61213
 732.14;  203.151;  174.070;  202.402;21.70208; 1.32797
 732.71;  207.712;  198.070;  206.947; 7.18313; 0.43988
 733.28;  243.917;  235.070;  242.121; 6.58519; 0.40358
 733.84;  202.392;  203.070;  201.460;-0.50528;-0.03099
 734.41;  201.633;  183.070;  200.092;13.88851; 0.85249
 734.98;  225.082;  234.070;  224.040;-6.69227;-0.41109
 735.54;  240.068;  238.070;  238.482; 1.48545; 0.09132
 736.11;  206.685;  208.070;  205.680;-1.03643;-0.06376
 736.68;  202.613;  212.070;  201.026;-7.08314;-0.43611
 737.25;  220.933;  204.070;  220.059;12.61685; 0.77742
 737.81;  296.843;  210.070;  296.605;65.15901; 4.01804
 738.38;  336.881;  226.070;  338.911;83.30622; 5.14104
 738.95;  287.376;  231.070;  286.653;42.25734; 2.60981
 739.51;  233.426;  241.070;  232.673;-5.78308;-0.35744
 740.08;  222.805;  227.070;  221.488;-3.22937;-0.19975
 740.65;  205.950;  176.070;  204.633;22.64626; 1.40185
 741.21;  219.915;  216.070;  217.655; 2.90774; 0.18013
 741.78;  223.896;  210.070;  222.625;10.49621; 0.65073
 742.35;  219.804;  227.070;  218.361;-5.52782;-0.34297
 742.91;  235.960;  268.070;  234.772;-24.37145;-1.51326
 743.48;  220.365;  235.070;  218.451;-11.26237;-0.69983
 744.05;  214.317;  223.070;  212.828;-6.70426;-0.41691
 744.61;  220.968;  198.070;  219.102;17.51822; 1.09022
 745.18;  204.318;  206.070;  202.524;-1.34527;-0.08378
 745.75;  217.985;  199.070;  216.518;14.59278; 0.90954
 746.31;  245.496;  272.070;  244.913;-20.46870;-1.27675
 746.88;  215.604;  216.070;  213.863;-0.36121;-0.02255
 747.44;  217.552;  220.070;  216.299;-1.95262;-0.12198
 748.01;  246.967;  252.070;  244.971;-3.95972;-0.24755
 748.58;  228.505;  238.070;  227.434;-7.43276;-0.46503
 749.14;  233.162;  215.070;  232.151;14.10300; 0.88302
 749.71;  407.288;  215.070;  409.007;150.55633; 9.43378
 750.28;  619.652;  231.070;  623.348;302.97169;18.99839
 750.84;  512.201;  223.070;  514.788;227.18743;14.25694
 751.41;  372.458;  210.070;  373.392;127.84520; 8.02886
 751.97;  288.900;  214.070;  288.500;58.78539; 3.69459
 752.54;  227.498;  228.070;  226.021;-0.45173;-0.02841
 753.11;  214.044;  202.071;  212.800; 9.50793; 0.59846
 753.67;  220.965;  224.071;  219.344;-2.47103;-0.15565
 754.24;  212.020;  212.071;  211.136;-0.04059;-0.00256
 754.80;  237.059;  206.071;  235.772;24.91622; 1.57184
 755.37;  197.140;  193.071;  196.112; 3.26174; 0.20592
 755.93;  231.047;  220.071;  228.983; 8.83564; 0.55823
 756.50;  222.182;  241.071;  220.414;-15.18499;-0.96010
 757.07;  226.531;  227.071;  225.081;-0.43641;-0.02761
 757.63;  199.583;  208.071;  198.460;-6.89806;-0.43680
 758.20;  202.401;  177.071;  200.826;20.69230; 1.31125
 758.76;  211.077;  235.071;  210.275;-19.66400;-1.24701
 759.33;  183.829;  195.071;  181.910;-9.27231;-0.58845
 759.89;  211.263;  230.071;  210.229;-15.51035;-0.98507
 760.46;  214.186;  229.071;  212.629;-12.35931;-0.78553
 761.02;  227.656;  215.071;  226.566;10.44835; 0.66457
 761.59;  211.348;  210.071;  210.232; 1.06512; 0.06780
 762.15;  245.685;  230.071;  245.730;13.09348; 0.83405
 762.72;  477.941;  180.071;  484.627;250.58252;15.97382
 763.28;  884.076;  205.071;  904.819;572.70928;36.53539
 763.85;  703.780;  232.071;  717.082;397.77214;25.39424
 764.41;  317.808;  208.071;  319.422;93.54684; 5.97656
 764.98;  238.266;  210.071;  236.657;24.11475; 1.54179
 765.54;  224.281;  217.071;  223.306; 6.18745; 0.39589
 766.11;  221.618;  211.071;  219.868; 9.08575; 0.58176
 766.67;  194.552;  197.071;  193.451;-2.17543;-0.13940
 767.24;  220.315;  209.071;  218.279; 9.70473; 0.62231
 767.80;  208.146;  168.071;  206.825;34.80621; 2.23357
 768.37;  205.568;  173.071;  203.819;28.42674; 1.82553
 768.93;  205.470;  218.071;  204.604;-11.06970;-0.71141
 769.50;  214.047;  215.071;  212.553;-0.90424;-0.05815
 770.06;  205.652;  173.071;  204.362;28.83751; 1.85599
 770.63;  214.234;  197.071;  212.509;15.28382; 0.98439
 771.19;  228.303;  209.071;  227.713;17.21134; 1.10935
 771.75;  382.739;  186.071;  386.013;176.43409;11.38034
 772.32;  534.001;  190.071;  540.920;310.97529;20.07318
 772.88;  392.026;  231.071;  394.002;145.58022; 9.40394
 773.45;  234.374;  205.071;  233.854;26.64855; 1.72265
 774.01;  212.644;  209.071;  211.401; 3.27165; 0.21164
 774.58;  210.101;  190.071;  208.512;18.43063; 1.19316
 775.14;  227.180;  202.071;  225.345;23.02466; 1.49165
 775.70;  225.329;  258.071;  223.768;-30.35887;-1.96823
 776.27;  217.360;  227.071;  216.023;-9.06044;-0.58783
 776.83;  221.589;  229.071;  220.652;-6.99811;-0.45436
 777.40;  198.272;  218.071;  196.861;-18.56263;-1.20608
 777.96;  200.975;  212.071;  199.912;-10.47659;-0.68119
 778.52;  223.695;  238.071;  222.001;-13.59265;-0.88444
 779.09;  218.500;  234.071;  217.521;-14.91644;-0.97128
 779.65;  219.589;  209.071;  217.891;10.11518; 0.65913
 780.22;  204.538;  182.072;  203.657;21.68039; 1.41376
 780.78;  232.990;  221.072;  231.066;11.58484; 0.75598
 781.34;  231.083;  254.072;  229.759;-22.36857;-1.46074
 781.91;  207.971;  230.072;  206.367;-21.60581;-1.41195
 782.47;  249.108;  237.072;  248.251;11.82993; 0.77365
 783.03;  228.371;  218.072;  226.590;10.17744; 0.66606
 783.60;  208.595;  235.072;  206.842;-26.43015;-1.73096
 784.16;  237.044;  246.072;  235.787;-9.03873;-0.59239
 784.72;  210.904;  194.072;  209.536;16.90148; 1.10850
 785.29;  217.665;  251.072;  216.064;-33.65281;-2.20874
 785.85;  237.250;  234.072;  236.114; 3.21942; 0.21145
 786.41;  223.053;  214.072;  221.143; 9.14985; 0.60139
 786.98;  213.856;  228.072;  212.930;-14.59568;-0.96002
 787.54;  236.213;  210.072;  235.438;26.92370; 1.77215
 788.10;  213.017;  206.072;  211.821; 7.22744; 0.47606
 788.67;  226.392;  224.072;  224.988; 2.42253; 0.15968
 789.23;  216.224;  214.072;  215.031; 2.25472; 0.14873
 789.79;  229.620;  245.072;  228.110;-16.27105;-1.07405
 790.36;  209.577;  214.072;  208.293;-4.75929;-0.31438
 790.92;  221.891;  254.072;  220.370;-34.23776;-2.26324
 791.48;  209.321;  209.072;  207.780; 0.26761; 0.01770
 792.05;  235.084;  212.072;  233.383;24.81237; 1.64253
 792.61;  220.023;  237.072;  219.161;-18.37957;-1.21755
 793.17;  230.364;  230.072;  228.546; 0.31877; 0.02113
 793.73;  249.180;  242.072;  248.665; 7.74641; 0.51389
 794.30;  321.441;  237.072;  322.737;92.65040; 6.15069
 794.86;  357.154;  233.072;  359.718;137.13639; 9.11038
 795.42;  264.518;  193.072;  263.689;80.07995; 5.32372
 795.98;  226.919;  224.072;  225.549; 3.18454; 0.21186
 796.55;  211.182;  206.072;  209.189; 5.75441; 0.38309
 797.11;  228.417;  237.072;  227.249;-9.79110;-0.65229
 797.67;  260.901;  273.072;  259.224;-13.80323;-0.92023
 798.23;  200.299;  225.072;  199.018;-28.43625;-1.89713
 798.80;  234.998;  209.072;  233.469;29.87892; 1.99478
 799.36;  243.424;  238.072;  242.588; 6.17697; 0.41268
 799.92;  291.747;  257.072;  292.194;40.18364; 2.68652
 800.48;  365.412;  209.072;  367.758;182.36230;12.20060
 801.05;  372.392;  237.072;  375.374;159.31428;10.66610
 801.61;  327.113;  213.072;  328.478;134.12121; 8.98572
 802.17;  250.308;  250.072;  249.713; 0.28027; 0.01879
 802.73;  238.915;  243.072;  237.766;-4.95237;-0.33226
 803.29;  203.753;  209.072;  202.163;-6.37999;-0.42834
 803.86;  233.518;  249.072;  232.486;-18.75520;-1.26007
 804.42;  237.544;  239.072;  236.011;-1.85761;-0.12489
 804.98;  251.761;  278.072;  250.790;-32.17085;-2.16442
 805.54;  236.536;  246.072;  235.030;-11.73020;-0.78974
 806.10;  234.019;  227.072;  233.258; 8.53590; 0.57509
 806.66;  267.377;  297.072;  265.863;-36.74091;-2.47706
 807.23;  240.421;  238.073;  239.389; 2.93586; 0.19807
 807.79;  234.336;  254.073;  232.747;-24.92844;-1.68301
 808.35;  244.711;  244.073;  243.629; 0.80265; 0.05423
 808.91;  227.802;  234.073;  226.076;-7.95479;-0.53780
 809.47;  258.507;  229.073;  257.649;37.77932; 2.55594
 810.03;  349.193;  208.073;  351.262;181.63484;12.29692
 810.60;  428.329;  238.073;  432.824;246.71746;16.71468
 811.16;  489.425;  173.073;  497.556;408.43399;27.68985
 811.72;  480.121;  218.073;  487.591;339.31024;23.01951
 812.28;  291.641;  233.073;  292.613;76.22097; 5.17457
 812.84;  255.386;  245.073;  254.431;13.46884; 0.91502
 813.40;  261.138;  250.073;  259.299;14.49745; 0.98558
 813.96;  248.786;  249.073;  248.104;-0.37587;-0.02557
 814.52;  246.265;  218.073;  244.074;37.16984; 2.53040
 815.09;  234.848;  223.073;  233.510;15.48227; 1.05471
 815.65;  248.554;  221.073;  246.571;36.47153; 2.48628
 816.21;  240.314;  246.073;  239.278;-7.61526;-0.51949
 816.77;  244.227;  237.073;  241.940; 9.44975; 0.64508
 817.33;  240.523;  262.073;  238.789;-28.70831;-1.96109
 817.89;  237.448;  218.073;  235.760;25.95770; 1.77441
 818.45;  270.076;  261.073;  269.189;12.11752; 0.82890
 819.01;  247.465;  238.073;  245.181;12.67582; 0.86768
 819.57;  242.748;  213.073;  241.436;40.55392; 2.77788
 820.13;  240.712;  260.073;  239.229;-26.50917;-1.81708
 820.69;  260.244;  264.073;  259.224;-5.25037;-0.36013
 821.25;  238.034;  249.073;  236.529;-15.27914;-1.04875
 821.82;  229.309;  218.073;  228.286;15.71961; 1.07972
 822.38;  249.191;  229.073;  247.358;28.15728; 1.93533
 822.94;  249.364;  281.073;  248.253;-44.54209;-3.06359
 823.50;  246.111;  281.073;  244.492;-49.49411;-3.40650
 824.06;  247.661;  259.073;  246.571;-16.27049;-1.12060
 824.62;  239.567;  222.073;  238.305;25.14368; 1.73291
 825.18;  288.373;  273.073;  287.441;22.03411; 1.51963
 825.74;  360.389;  249.073;  361.056;161.23855;11.12768
 826.30;  454.260;  249.073;  457.405;299.13088;20.65816
 826.86;  357.843;  230.073;  358.300;187.08583;12.92902
 827.42;  276.538;  256.073;  275.466;30.11060; 2.08228
 827.98;  257.705;  237.073;  256.180;30.44765; 2.10701
 828.54;  241.381;  245.073;  240.711;-5.48003;-0.37948
 829.10;  232.902;  235.073;  231.523;-3.24691;-0.22499
 829.66;  253.912;  246.073;  252.830;11.74681; 0.81454
 830.22;  237.945;  205.073;  235.938;49.60184; 3.44179
 830.78;  223.021;  237.073;  221.819;-21.36167;-1.48325
 831.34;  239.472;  205.073;  237.472;52.34523; 3.63704
 831.90;  250.465;  250.073;  249.087; 0.60163; 0.04183
 832.46;  238.175;  212.073;  236.797;40.29918; 2.80383
 833.02;  210.940;  219.073;  209.495;-12.57814;-0.87572
 833.58;  244.960;  273.073;  243.690;-43.51557;-3.03168
 834.14;  235.099;  227.074;  233.696;12.49728; 0.87126
 834.70;  244.898;  228.074;  242.969;26.20858; 1.82838
 835.25;  214.068;  193.074;  212.537;32.84382; 2.29280
 835.81;  223.619;  234.074;  222.364;-16.51211;-1.15347
 836.37;  234.589;  255.074;  233.459;-32.63591;-2.28134
 836.93;  247.161;  250.074;  245.528;-4.63791;-0.32442
 837.49;  242.004;  253.074;  240.231;-17.60401;-1.23221
 838.05;  217.584;  255.074;  215.568;-60.03189;-4.20481
 838.61;  230.092;  258.074;  228.345;-44.94615;-3.15026
 839.17;  228.318;  262.074;  226.276;-54.58235;-3.82821
 839.73;  259.167;  244.074;  258.319;24.50043; 1.71952
 840.29;  333.359;  245.074;  333.548;143.98855;10.11230
 840.85;  327.246;  222.074;  327.660;171.51256;12.05333
 841.41;  306.270;  222.074;  306.286;138.03224; 9.70689
 841.97;  363.374;  234.074;  365.696;213.00886;14.98945
 842.52;  367.929;  217.074;  370.545;248.85534;17.52359
 843.08;  267.957;  227.074;  267.732;67.84526; 4.78061
 843.64;  231.543;  222.074;  229.900;15.75054; 1.11057
 844.20;  235.646;  222.074;  234.759;22.80408; 1.60899
 844.76;  244.840;  236.074;  242.579;14.76471; 1.04244
 845.32;  200.311;  191.074;  198.961;15.59306; 1.10165
 845.88;  229.106;  238.074;  227.892;-15.16364;-1.07202
 846.44;  239.174;  258.074;  237.958;-32.16491;-2.27546
 846.99;  249.746;  262.074;  247.684;-20.99697;-1.48638
 847.55;  228.938;  261.074;  227.479;-54.80675;-3.88235
 848.11;  200.302;  200.074;  199.205; 0.39237; 0.02781
 848.67;  227.960;  234.074;  227.076;-10.52178;-0.74631
 849.23;  204.351;  202.074;  202.867; 3.93019; 0.27895
 849.79;  224.696;  222.074;  223.775; 4.55759; 0.32370
 850.34;  233.331;  233.074;  231.717; 0.44543; 0.03166
 850.90;  211.416;  213.074;  210.174;-2.89046;-0.20556
 851.46;  281.960;  226.074;  280.813;97.43464; 6.93381
 852.02;  301.695;  250.074;  302.208;89.85220; 6.39840
 852.58;  230.433;  194.074;  229.482;64.40848; 4.58955
 853.13;  227.517;  209.074;  226.250;32.63195; 2.32678
 853.69;  224.505;  235.074;  222.824;-18.75343;-1.33806
 854.25;  258.751;  270.074;  257.616;-20.09450;-1.43468
 854.81;  219.171;  206.074;  217.697;23.42058; 1.67325
 855.37;  221.540;  220.074;  220.333; 2.61280; 0.18679
 855.92;  242.885;  241.074;  241.309; 3.25294; 0.23270
 856.48;  222.045;  234.074;  220.764;-21.63149;-1.54846
 857.04;  242.621;  254.074;  240.575;-20.63879;-1.47836
 857.60;  239.197;  244.074;  238.221;-8.78956;-0.63001
 858.16;  236.061;  225.074;  234.200;19.94200; 1.43030
 858.71;  246.183;  239.074;  244.791;12.93977; 0.92868
 859.27;  228.281;  228.074;  226.620; 0.37754; 0.02711
 859.83;  228.587;  210.074;  226.823;33.98929; 2.44257
 860.39;  225.546;  215.074;  224.121;19.24894; 1.38418
 860.94;  225.739;  181.075;  224.748;82.25240; 5.91857
 861.50;  219.609;  246.075;  217.997;-48.86482;-3.51840
 862.06;  233.696;  259.075;  232.546;-46.99605;-3.38603
 862.61;  232.322;  210.075;  230.805;41.32736; 2.97953
 863.17;  204.121;  190.075;  202.723;26.13385; 1.88536
 863.73;  240.179;  233.075;  238.581;13.28132; 0.95877
 864.29;  229.598;  230.075;  228.253;-0.89049;-0.06432
 864.84;  237.108;  250.075;  235.379;-24.33965;-1.75932
 865.40;  236.636;  238.075;  235.780;-2.69996;-0.19528
 865.96;  225.918;  212.075;  224.416;26.20346; 1.89648
 866.51;  236.667;  233.075;  235.455; 6.81669; 0.49368
 867.07;  243.948;  222.075;  242.350;41.41359; 3.00118
 867.63;  253.072;  270.075;  251.922;-32.41692;-2.35071
 868.18;  247.599;  238.075;  245.624;18.12593; 1.31524
 868.74;  248.110;  277.075;  246.961;-55.19437;-4.00755
 869.30;  231.957;  255.075;  230.235;-44.40829;-3.22646
 869.86;  219.517;  200.075;  218.265;37.36546; 2.71651
 870.41;  255.961;  246.075;  253.958;18.96009; 1.37930
 870.97;  228.357;  256.075;  227.264;-53.57385;-3.89986
 871.52;  230.228;  241.075;  228.567;-21.13391;-1.53941
 872.08;  251.852;  214.075;  250.722;73.05521; 5.32478
 872.64;  235.837;  237.075;  234.442;-2.40990;-0.17576
 873.19;  212.839;  216.075;  211.657;-6.28259;-0.45850
 873.75;  226.280;  237.075;  224.592;-21.14931;-1.54446
 874.31;  221.418;  237.075;  220.056;-30.54557;-2.23206
 874.86;  243.892;  270.075;  241.915;-50.81093;-3.71528
 875.42;  254.561;  245.075;  253.322;18.40425; 1.34657
 875.98;  235.087;  235.075;  233.113; 0.02251; 0.00165
 876.53;  236.721;  245.075;  234.819;-16.19712;-1.18659
 877.09;  255.684;  249.075;  253.951;12.75138; 0.93475
 877.64;  238.114;  254.075;  236.529;-30.87215;-2.26453
 878.20;  234.903;  239.075;  232.907;-8.05115;-0.59094
 878.76;  247.284;  246.075;  246.343; 2.32419; 0.17070
 879.31;  209.294;  193.075;  207.275;31.09749; 2.28540
 879.87;  241.738;  251.075;  240.780;-17.93695;-1.31905
 880.42;  235.900;  230.075;  234.107;11.10155; 0.81690
 880.98;  223.440;  210.075;  221.988;25.41923; 1.87164
 881.54;  257.264;  256.075;  255.548; 2.25563; 0.16619
 882.09;  235.393;  235.075;  234.437; 0.60346; 0.04449
 882.65;  251.260;  258.075;  249.402;-12.82784;-0.94631
 883.20;  244.667;  246.075;  243.568;-2.65386;-0.19590
 883.76;  246.942;  252.075;  245.358;-9.63891;-0.71196
 884.31;  241.942;  249.075;  241.009;-13.42779;-0.99244
 884.87;  270.534;  224.075;  268.712;87.57001; 6.47631
 885.42;  233.272;  224.075;  232.324;17.33024; 1.28248
 885.98;  220.747;  238.075;  218.974;-32.80574;-2.42922
 886.53;  241.769;  233.075;  240.171;16.47390; 1.22064
 887.09;  251.349;  311.075;  250.041;-113.88752;-8.44379
 887.65;  243.775;  261.075;  242.631;-32.83091;-2.43566
 888.20;  238.005;  235.075;  236.451; 5.63918; 0.41862
 888.76;  234.290;  230.075;  232.933; 8.13505; 0.60428
 889.31;  245.639;  265.075;  244.079;-37.63089;-2.79699
 889.87;  245.262;  236.075;  244.165;17.99061; 1.33802
 890.42;  236.601;  247.075;  234.992;-20.63625;-1.53575
 890.98;  242.607;  286.075;  241.387;-86.36810;-6.43151
 891.53;  217.229;  206.075;  215.649;22.29442; 1.66122
 892.09;  252.651;  241.075;  250.758;23.18139; 1.72838
 892.64;  234.961;  221.075;  233.499;28.02846; 2.09107
 893.19;  238.691;  230.075;  237.524;17.47059; 1.30421
 893.75;  224.086;  234.075;  222.592;-20.44129;-1.52693
 894.30;  254.022;  272.075;  253.056;-37.13213;-2.77542
 894.86;  222.776;  213.075;  221.596;20.06596; 1.50075
 895.41;  261.106;  267.075;  259.505;-12.40574;-0.92841
 895.97;  223.633;  198.075;  222.024;53.82332; 4.03048
 896.52;  260.315;  286.075;  259.433;-54.14262;-4.05690
 897.08;  244.408;  231.075;  242.592;28.17645; 2.11256
 897.63;  260.651;  261.075;  258.403;-0.90129;-0.06762
 898.19;  240.301;  266.075;  238.741;-54.96219;-4.12595
 898.74;  260.487;  260.075;  259.055; 0.88520; 0.06649
 899.29;  259.148;  234.075;  257.459;54.26630; 4.07874
 899.85;  236.154;  214.075;  234.908;47.72387; 3.58921
 900.40;  242.407;  215.075;  240.737;59.59918; 4.48509
 900.96;  243.614;  256.075;  242.504;-27.30591;-2.05615
 901.51;  240.136;  257.075;  238.582;-37.45332;-2.82199
 902.06;  243.489;  226.075;  241.858;38.31160; 2.88843
 902.62;  255.568;  244.075;  253.773;25.39918; 1.91610
 903.17;  250.045;  274.075;  248.685;-53.09501;-4.00791
 903.73;  252.124;  235.075;  250.358;37.77810; 2.85345
 904.28;  233.835;  259.075;  232.970;-56.33598;-4.25777
 904.83;  266.247;  226.075;  264.544;90.09554; 6.81343
 905.39;  221.307;  213.075;  219.915;18.54341; 1.40320
 905.94;  247.597;  222.075;  245.869;57.51383; 4.35478
 906.50;  256.870;  256.075;  255.605; 1.80870; 0.13703
 907.05;  236.400;  230.075;  234.856;14.38401; 1.09045
 907.60;  255.013;  244.075;  253.492;24.93646; 1.89158
 908.16;  244.615;  251.075;  242.704;-14.79041;-1.12262
 908.71;  247.872;  234.075;  246.128;31.61500; 2.40111
 909.26;  251.545;  265.075;  250.067;-31.22080;-2.37261
 909.82;  244.970;  238.075;  243.055;15.85543; 1.20566
 910.37;  251.349;  233.075;  249.805;42.43765; 3.22896
 910.92;  283.965;  274.075;  282.798;23.07778; 1.75699
 911.48;  414.763;  254.075;  417.556;374.97070;28.56514
 912.03;  491.100;  209.075;  498.296;660.12910;50.31893
 912.58;  406.383;  230.075;  409.322;417.42517;31.83790
 913.14;  294.506;  263.075;  294.353;74.22541; 5.66476
 913.69;  280.688;  258.075;  279.206;53.32979; 4.07251
 914.24;  236.869;  272.075;  236.791;-83.19433;-6.35694
 914.79;  234.673;  221.075;  233.204;32.24624; 2.46545
 915.35;  250.480;  238.075;  249.557;29.56915; 2.26214
 915.90;  256.376;  252.075;  254.492;10.23344; 0.78336
 916.45;  236.146;  234.075;  234.809; 4.96861; 0.38057
 917.01;  250.521;  245.075;  248.566;13.13829; 1.00694
 917.56;  244.850;  255.075;  243.381;-24.82281;-1.90361
 918.11;  242.922;  248.075;  241.120;-12.51179;-0.96008
 918.66;  239.665;  207.075;  238.038;79.28103; 6.08723
 919.22;  253.623;  250.075;  251.839; 8.65034; 0.66458
 919.77;  238.459;  231.075;  237.308;18.02628; 1.38573
 920.32;  242.225;  258.075;  240.087;-39.01514;-3.00100
 920.87;  249.580;  217.075;  248.443;79.77424; 6.13983
 921.43;  259.924;  248.075;  257.774;29.37868; 2.26249
 921.98;  274.266;  220.075;  274.027;135.28242;10.42452
 922.53;  271.592;  222.075;  271.230;122.69742; 9.46041
 923.08;  257.267;  262.075;  256.248;-11.97589;-0.92394
 923.64;  248.218;  233.075;  246.640;37.98631; 2.93239
 924.19;  246.934;  253.075;  245.578;-15.45276;-1.19360
 924.74;  228.664;  217.075;  227.339;29.29612; 2.26424
 925.29;  278.012;  280.075;  277.403;-5.23445;-0.40480
 925.84;  252.021;  226.075;  250.418;65.80269; 5.09184
 926.40;  231.296;  255.075;  230.558;-60.37578;-4.67469
 926.95;  231.547;  223.075;  230.070;21.62258; 1.67516
 927.50;  233.265;  249.075;  232.286;-40.61610;-3.14851
 928.05;  244.940;  229.075;  243.188;40.93192; 3.17488
 928.60;  229.419;  226.075;  227.996; 8.63493; 0.67017
 929.15;  246.391;  246.075;  244.566; 0.81983; 0.06367
 929.71;  258.530;  258.075;  257.152; 1.18662; 0.09220
 930.26;  237.536;  203.075;  236.483;90.73827; 7.05485
 930.81;  244.662;  247.075;  243.173;-6.36109;-0.49486
 931.36;  253.688;  248.075;  251.829;14.79950; 1.15202
 931.91;  259.157;  242.075;  258.185;45.35354; 3.53248
 932.46;  255.808;  248.075;  254.427;20.61020; 1.60623
 933.02;  242.749;  246.075;  241.447;-8.88709;-0.69301
 933.57;  229.394;  202.075;  227.857;73.55051; 5.73885
 934.12;  229.415;  259.075;  228.678;-79.97911;-6.24413
 934.67;  249.683;  226.075;  247.849;64.38498; 5.02963
 935.22;  241.692;  223.075;  239.843;50.35273; 3.93578
 935.77;  264.977;  260.075;  263.560;13.37179; 1.04581
 936.32;  250.410;  274.075;  248.934;-64.68721;-5.06218
 936.87;  253.777;  254.075;  251.872;-0.81828;-0.06407
 937.42;  247.545;  252.075;  246.185;-12.50214;-0.97952
 937.98;  229.637;  226.075;  227.583; 9.96608; 0.78129
 938.53;  239.655;  259.075;  239.005;-54.20501;-4.25187
 939.08;  230.645;  222.075;  228.979;23.89760; 1.87564
 939.63;  252.497;  258.075;  251.205;-15.66289;-1.23005
 940.18;  261.260;  295.075;  259.810;-95.19884;-7.48060
 940.73;  242.527;  240.075;  241.304; 6.96452; 0.54758
 941.28;  227.682;  242.075;  225.946;-40.95700;-3.22212
 941.83;  235.690;  230.075;  234.167;16.06750; 1.26478
 942.38;  230.859;  236.075;  229.162;-14.96877;-1.17898
 942.93;  247.088;  232.075;  245.600;43.22805; 3.40675
 943.48;  244.367;  243.075;  241.917; 3.74418; 0.29525
 944.03;  228.628;  236.075;  227.541;-21.78451;-1.71881
 944.58;  234.900;  254.075;  233.064;-55.98629;-4.41994
 945.13;  230.965;  215.075;  229.815;47.05510; 3.71701
 945.68;  224.127;  213.075;  222.208;32.72560; 2.58659
 946.23;  231.936;  242.075;  230.613;-30.06450;-2.37764
 946.79;  232.856;  229.075;  231.005;11.29460; 0.89375
 947.34;  251.139;  212.075;  249.695;116.35389; 9.21252
 947.89;  256.454;  270.075;  254.959;-40.90467;-3.24058
 948.44;  236.471;  253.075;  235.094;-50.03741;-3.96640
 948.99;  235.350;  240.075;  232.976;-14.27446;-1.13217
 949.54;  249.185;  265.075;  247.815;-48.61106;-3.85780
 950.09;  233.222;  229.075;  231.862;12.71916; 1.00998
 950.64;  231.855;  208.075;  230.175;73.54763; 5.84355
 951.19;  213.968;  219.075;  212.079;-15.83858;-1.25914
 951.73;  204.775;  213.075;  203.920;-26.03172;-2.07068
 952.28;  248.087;  249.075;  246.343;-3.09067;-0.24599
 952.83;  240.799;  263.075;  239.615;-69.77985;-5.55701
 953.38;  260.058;  277.075;  258.216;-53.61017;-4.27178
 953.93;  234.774;  252.075;  233.756;-54.71367;-4.36222
 954.48;  237.419;  269.075;  235.252;-100.50927;-8.01804
 955.03;  240.983;  247.075;  239.630;-19.49204;-1.55586
 955.58;  237.791;  244.075;  235.937;-20.25925;-1.61802
 956.13;  209.402;  201.075;  208.432;26.89979; 2.14961
 956.68;  222.795;  235.075;  221.447;-40.10718;-3.20688
 957.23;  209.548;  209.075;  208.319; 1.55184; 0.12415
 957.78;  221.654;  256.075;  220.490;-113.28164;-9.06815
 958.33;  202.367;  205.075;  200.820;-9.00251;-0.72106
 958.88;  231.145;  207.075;  229.774;80.20261; 6.42755
 959.43;  237.871;  248.075;  236.505;-34.23183;-2.74496
 959.98;  224.230;  217.075;  222.095;24.01082; 1.92647
 960.53;  252.547;  281.075;  251.760;-96.98995;-7.78627
 961.07;  224.064;  221.075;  222.095;10.18665; 0.81824
 961.62;  267.673;  286.075;  266.468;-62.92447;-5.05729
 962.17;  232.248;  253.075;  230.541;-72.21748;-5.80749
 962.72;  235.161;  209.075;  233.526;90.96129; 7.31898
 963.27;  235.642;  247.075;  235.086;-39.71740;-3.19759
 963.82;  222.621;  241.075;  221.158;-64.85267;-5.22416
 964.37;  253.309;  260.075;  251.846;-23.95319;-1.93063
 964.92;  265.736;  221.075;  265.268;158.40034;12.77436
 965.46;  270.296;  221.075;  270.087;176.08946;14.20899
 966.01;  262.340;  240.075;  261.362;79.74713; 6.43860
 966.56;  250.741;  215.075;  248.617;128.91038;10.41384
 967.11;  244.528;  219.075;  243.633;92.57310; 7.48263
 967.66;  229.564;  229.075;  228.075; 1.79643; 0.14529
 968.21;  225.929;  209.075;  223.581;62.57961; 5.06401
 968.75;  242.276;  245.075;  240.332;-10.35705;-0.83858
 969.30;  234.315;  256.075;  233.210;-81.59130;-6.60993
 969.85;  251.856;  256.075;  250.345;-15.83293;-1.28339
 970.40;  239.411;  251.075;  237.947;-44.21504;-3.58603
 970.95;  243.874;  219.075;  242.332;94.27379; 7.65034
 971.50;  241.648;  213.075;  240.565;109.71785; 8.90865
 972.04;  242.888;  245.075;  240.898;-8.41967;-0.68403
 972.59;  252.312;  259.075;  250.833;-26.36746;-2.14335
 973.14;  245.220;  232.075;  243.308;51.49937; 4.18862
 973.69;  254.487;  266.075;  252.698;-45.61689;-3.71227
 974.24;  238.322;  249.075;  236.635;-42.51657;-3.46191
 974.78;  233.980;  233.075;  232.698; 3.61692; 0.29467
 975.33;  263.822;  256.075;  262.123;31.10777; 2.53580
 975.88;  248.143;  249.075;  247.067;-3.78562;-0.30876
 976.43;  244.819;  268.075;  243.146;-95.38654;-7.78431
 976.97;  239.541;  239.075;  238.105; 1.90734; 0.15574
 977.52;  230.232;  221.075;  228.570;37.91368; 3.09753
 978.07;  278.463;  281.075;  277.527;-10.85232;-0.88713
 978.62;  268.118;  271.075;  266.470;-12.34001;-1.00930
 979.16;  264.409;  279.075;  262.646;-62.04167;-5.07730
 979.71;  229.751;  244.075;  227.854;-60.70104;-4.97036
 980.26;  250.332;  219.075;  249.504;134.20945;10.99556
 980.81;  249.172;  243.075;  246.767;26.16666; 2.14499
 981.35;  271.508;  256.075;  270.181;66.95691; 5.49179
 981.90;  260.151;  248.075;  258.503;53.11333; 4.35877
 982.45;  258.617;  243.075;  257.604;68.63576; 5.63577
 982.99;  260.417;  254.075;  258.689;28.22316; 2.31873
 983.54;  257.788;  276.075;  256.480;-82.10227;-6.74903
 984.09;  249.567;  263.075;  247.993;-60.94033;-5.01225
 984.63;  246.015;  281.075;  244.842;-159.72330;-13.14429
 985.18;  260.394;  272.075;  259.241;-53.34732;-4.39261
 985.73;  253.520;  258.075;  252.323;-21.05904;-1.73496
 986.27;  243.532;  251.075;  241.887;-34.96894;-2.88253
 986.82;  250.196;  264.075;  249.645;-64.92078;-5.35447
 987.37;  265.201;  267.075;  264.788;-8.85683;-0.73089
 987.91;  255.961;  273.075;  254.562;-81.40076;-6.72112
 988.46;  265.384;  256.075;  263.778;44.59994; 3.68458
 989.01;  256.929;  242.075;  255.884;71.67664; 5.92477
 989.55;  258.802;  241.075;  257.262;86.67180; 7.16822
 990.10;  266.631;  252.075;  265.513;71.46406; 5.91372
 990.65;  280.961;  285.075;  279.084;-20.45577;-1.69367
 991.19;  254.608;  275.075;  253.464;-102.33068;-8.47731
 991.74;  272.061;  260.075;  270.452;59.85962; 4.96164
 992.29;  260.371;  245.075;  259.079;77.36997; 6.41657
 992.83;  271.797;  269.075;  269.852;13.93481; 1.15630
 993.38;  265.974;  257.075;  265.080;45.42461; 3.77137
 993.92;  244.965;  258.075;  243.246;-68.20885;-5.66615
 994.47;  234.917;  229.075;  233.824;30.62816; 2.54570
 995.02;  254.878;  255.075;  253.541;-1.03547;-0.08611
 995.56;  274.298;  253.075;  273.992;113.20656; 9.41963
 996.11;  263.648;  273.075;  261.846;-50.47972;-4.20259
 996.65;  264.359;  274.075;  263.810;-52.57779;-4.37966
 997.20;  259.777;  265.075;  258.109;-29.08280;-2.42389
 997.75;  257.020;  248.075;  256.184;49.47552; 4.12576
 998.29;  233.799;  231.075;  232.697;15.21513; 1.26948
 998.84;  262.404;  257.075;  261.339;30.06655; 2.50999
 999.38;  264.522;  236.075;  262.533;161.43297;13.48397
 999.93;  280.166;  287.075;  278.755;-39.62369;-3.31144
1000.47;  279.097;  261.075;  277.285;103.87908; 8.68615
1001.02;  271.202;  236.075;  269.583;206.23344;17.25421
1001.56;  258.260;  241.075;  257.497;101.09499; 8.46257
1002.11;  248.219;  225.075;  246.868;138.43972;11.59497
1002.65;  240.186;  246.075;  238.703;-35.34899;-2.96225
1003.20;  250.163;  235.075;  248.743;91.49406; 7.67139
1003.75;  284.783;  309.075;  282.971;-149.24715;-12.52055
1004.29;  251.694;  265.075;  250.789;-82.48923;-6.92389
1004.84;  238.797;  235.075;  237.252;23.13001; 1.94252
1005.38;  240.772;  256.075;  239.916;-96.63646;-8.12017
1005.93;  259.177;  234.075;  257.750;159.06708;13.37334
1006.47;  238.950;  229.075;  237.564;63.79927; 5.36674
1007.02;  246.299;  267.075;  244.342;-135.38995;-11.39505
1007.56;  262.279;  254.075;  260.935;53.74741; 4.52608
1008.11;  267.598;  261.075;  266.076;42.99131; 3.62227
1008.65;  226.222;  248.075;  224.809;-146.36637;-12.33887
1009.19;  254.050;  269.075;  252.320;-101.49589;-8.56086
1009.74;  248.811;  244.075;  247.802;32.47895; 2.74097
1010.28;  251.692;  232.075;  250.034;135.45421;11.43746
1010.83;  259.583;  281.075;  259.005;-150.69899;-12.73156
1011.37;  253.637;  241.075;  252.199;88.94778; 7.51866
1011.92;  253.286;  249.075;  251.875;29.99592; 2.53689
1012.46;  249.310;  253.075;  247.633;-27.04730;-2.28874
1013.01;  304.209;  281.075;  302.802;168.57481;14.27245
1013.55;  283.880;  255.075;  282.144;208.90994;17.69694
1014.09;  267.640;  237.075;  266.280;225.36347;19.10099
1014.64;  254.244;  255.075;  252.749;-6.23156;-0.52845
1015.18;  244.995;  247.075;  243.697;-15.58294;-1.32217
1015.73;  238.416;  229.075;  236.401;71.45604; 6.06610
1016.27;  258.903;  290.075;  258.436;-239.55016;-20.34698
1016.82;  251.856;  269.075;  250.058;-132.15651;-11.23115
1017.36;  243.483;  232.075;  242.270;89.11193; 7.57712
1017.90;  233.207;  206.075;  231.062;212.50421;18.07872
1018.45;  227.845;  227.075;  226.550; 6.09752; 0.51902
1018.99;  230.574;  210.075;  229.060;164.75383;14.03135
1019.53;  218.902;  213.075;  217.755;47.37491; 4.03686
1020.08;  245.455;  233.075;  243.779;101.63069; 8.66467
1020.62;  246.835;  226.075;  245.518;173.73488;14.81991
1021.17;  249.946;  230.075;  247.577;169.40451;14.45822
1021.71;  251.077;  244.075;  250.034;60.78323; 5.19045
1022.25;  258.103;  249.075;  256.391;79.43983; 6.78720
1022.80;  232.560;  245.075;  231.322;-112.11343;-9.58386
1023.34;  230.270;  220.075;  228.160;92.29897; 7.89424
1023.88;  243.820;  236.075;  242.720;71.52184; 6.12044
1024.43;  246.835;  245.075;  245.046;16.34032; 1.39906
1024.97;  250.282;  249.075;  249.241;11.38056; 0.97492
1025.51;  230.336;  227.075;  229.064;31.11770; 2.66712
1026.06;  246.077;  253.075;  245.076;-67.61372;-5.79829
1026.60;  251.089;  247.075;  249.435;39.33879; 3.37533
1027.14;  262.583;  265.075;  261.754;-24.76187;-2.12573
1027.69;  250.531;  245.075;  248.789;55.77923; 4.79100
1028.23;  246.463;  228.075;  245.599;188.39183;16.18994
1028.77;  230.427;  235.075;  228.993;-47.72944;-4.10392
1029.31;  242.115;  228.075;  240.778;147.50392;12.68952
1029.86;  235.538;  209.075;  233.389;279.42012;24.05073
1030.40;  279.910;  271.075;  278.813;95.26729; 8.20433
1030.94;  249.734;  255.075;  248.290;-58.34536;-5.02730
1031.48;  258.554;  254.075;  257.590;49.21945; 4.24320
1032.03;  246.729;  251.075;  245.562;-48.68301;-4.19916
1032.57;  247.055;  233.075;  245.887;157.64256;13.60463
1033.11;  243.679;  266.075;  241.946;-256.26764;-22.12764
1033.65;  232.857;  248.075;  231.608;-178.19106;-15.39414
1034.20;  253.124;  246.075;  251.391;82.91877; 7.16721
1034.74;  250.573;  250.075;  249.558; 5.96528; 0.51589
1035.28;  249.496;  261.075;  247.887;-141.58877;-12.25128
1035.82;  228.118;  236.075;  227.490;-97.46216;-8.43754
1036.37;  239.896;  233.075;  238.137;85.16559; 7.37686
1036.91;  266.882;  260.075;  265.781;85.89601; 7.44402
1037.45;  255.879;  242.075;  253.568;178.36395;15.46566
1037.99;  245.409;  237.075;  244.536;108.62279; 9.42343
1038.53;  247.164;  263.075;  245.679;-210.58993;-18.27900
1039.08;  234.513;  247.075;  233.214;-168.43811;-14.62790
1039.62;  234.218;  241.075;  232.256;-93.58330;-8.13142
1040.16;  239.311;  262.075;  237.569;-310.60206;-27.00217
1040.70;  246.408;  247.075;  244.505;-9.42650;-0.81992
1041.24;  261.021;  252.075;  259.682;128.88061;11.21590
1041.79;  235.362;  240.075;  233.468;-67.67626;-5.89262
1042.33;  241.977;  257.075;  240.471;-221.00126;-19.25275
1042.87;  235.529;  238.075;  233.549;-37.84724;-3.29881
1043.41;  239.362;  230.075;  238.985;141.71643;12.35860
1043.95;  254.105;  237.075;  252.268;260.78534;22.75400
1044.49;  221.503;  219.075;  220.518;37.91872; 3.31019
1045.04;  251.967;  273.075;  250.221;-333.56290;-29.13416
1045.58;  243.170;  250.075;  241.830;-110.52063;-9.65813
1046.12;  273.576;  262.075;  271.849;185.76825;16.24224
1046.66;  256.036;  257.075;  254.885;-17.14430;-1.49975
1047.20;  237.298;  236.075;  235.320;20.42721; 1.78786
1047.74;  271.136;  223.075;  269.595;813.69261;71.25386
1048.28;  251.779;  270.075;  251.215;-312.13332;-27.34717
1048.82;  268.051;  276.075;  266.556;-140.75723;-12.33863
1049.36;  271.714;  267.075;  269.315;81.97631; 7.18967
1049.91;  258.276;  261.075;  257.742;-50.20687;-4.40562
1050.45;  251.041;  238.075;  249.309;237.68546;20.86750
1050.99;  271.715;  276.075;  270.051;-81.08056;-7.12210
1051.53;  275.872;  253.075;  274.352;431.10397;37.88758
1052.07;  249.591;  272.075;  248.606;-428.71034;-37.69659
1052.61;  251.094;  261.075;  249.157;-193.98902;-17.06626
1053.15;  260.332;  280.075;  259.428;-387.22442;-34.08372
1053.69;  253.143;  243.075;  251.300;199.61926;17.57963
1054.23;  259.221;  275.075;  258.219;-324.47716;-28.58999
1054.77;  274.040;  275.075;  272.751;-21.48027;-1.89362
1055.31;  257.633;  239.075;  256.713;390.25834;34.42130
1055.85;  250.672;  233.075;  248.855;372.68067;32.88775
1056.39;  249.981;  236.075;  248.859;299.70625;26.46156
1056.93;  257.735;  270.075;  256.144;-271.89514;-24.01835
1057.47;  269.115;  282.075;  267.844;-285.49201;-25.23234
1058.01;  266.564;  272.075;  264.903;-124.67790;-11.02490
1058.55;  265.615;  253.075;  264.264;291.82440;25.81836
1059.09;  263.990;  251.075;  261.937;304.99164;26.99706
1059.63;  270.280;  284.075;  269.195;-331.97265;-29.40034
1060.17;  284.656;  294.075;  282.384;-228.28938;-20.22819
1060.71;  249.172;  245.075;  248.087;99.98696; 8.86412
1061.25;  261.207;  253.075;  259.538;201.96717;17.91407
1061.79;  262.070;  262.075;  260.867;-0.12277;-0.01090
1062.33;  254.926;  251.075;  253.076;99.90961; 8.87079
1062.87;  286.530;  278.075;  285.207;222.02414;19.72313
1063.41;  264.740;  257.075;  263.348;208.51066;18.53209
1063.95;  271.400;  271.075;  270.279; 8.83748; 0.78586
1064.49;  254.130;  256.075;  252.270;-53.49635;-4.75949
1065.03;  309.013;  328.075;  307.733;-531.47806;-47.30881
1065.57;  284.445;  306.075;  283.047;-626.40529;-55.78688
1066.11;  263.512;  255.075;  262.131;249.68654;22.24803
1066.65;  261.795;  238.075;  260.043;698.01201;62.22702
1067.19;  277.541;  277.075;  275.876;13.92918; 1.24240
1067.73;  285.322;  291.075;  283.350;-174.84379;-15.60290
1068.27;  255.276;  266.075;  254.223;-330.84849;-29.53953
1068.81;  260.949;  280.075;  259.483;-601.09159;-53.69504
1069.35;  285.834;  302.075;  284.767;-505.99214;-45.22268
1069.89;  252.967;  233.075;  251.184;626.68488;56.03774
1070.43;  278.032;  302.075;  276.645;-786.95888;-70.40479
1070.96;  274.167;  256.075;  272.407;590.31280;52.83856
1071.50;  272.129;  281.075;  270.816;-295.91460;-26.50048
1072.04;  268.554;  270.075;  266.872;-49.98879;-4.47897
1072.58;  272.578;  283.075;  271.651;-353.79203;-31.71553
1073.12;  284.748;  288.075;  282.998;-115.74118;-10.38078
1073.66;  256.336;  229.075;  254.951;948.75985;85.13660
1074.20;  265.715;  263.075;  264.014;92.11796; 8.27032
1074.74;  270.399;  274.075;  269.329;-131.44222;-11.80675
1075.27;  260.150;  250.075;  258.285;357.67098;32.14377
1075.81;  261.959;  237.075;  260.575;906.90884;81.54442
1076.35;  268.272;  267.075;  266.626;44.50584; 4.00373
1076.89;  269.126;  276.075;  267.796;-265.69262;-23.91358
1077.43;  286.765;  272.075;  285.033;566.09578;50.97675
1077.97;  275.549;  274.075;  274.432;57.84403; 5.21144
1078.50;  270.267;  267.075;  269.451;120.80480;10.88930
1079.04;  261.034;  266.075;  259.633;-199.47988;-17.99002
1079.58;  266.427;  253.075;  264.887;545.04203;49.17894
1080.12;  262.787;  265.075;  261.383;-94.37905;-8.52003
1080.66;  278.399;  296.075;  276.577;-746.27395;-67.40315
1081.20;  258.409;  256.075;  257.266;98.33123; 8.88566
1081.73;  249.952;  254.075;  248.353;-173.25614;-15.66400
1082.27;  272.444;  255.075;  271.109;735.21251;66.50326
1082.81;  275.199;  247.075;  273.400;1208.95655;109.40987
1083.35;  265.991;  277.075;  264.935;-497.77183;-45.07044
1083.88;  267.283;  269.075;  266.062;-80.86480;-7.32549
1084.42;  281.745;  294.075;  280.563;-553.81960;-50.19503
1084.96;  259.197;  240.075;  257.400;861.00532;78.07527
1085.50;  269.191;  282.075;  268.081;-601.06983;-54.53154
1086.04;  265.213;  257.075;  263.456;383.20956;34.78357
1086.57;  288.943;  291.075;  287.756;-100.66507;-9.14180
1087.11;  268.015;  298.075;  265.053;-1435.14449;-130.39566
1087.65;  258.386;  255.075;  257.575;161.16290;14.65032
1088.19;  282.643;  288.075;  281.062;-268.16938;-24.38967
1088.72;  266.975;  271.075;  265.763;-209.32871;-19.04758
1089.26;  259.057;  248.075;  257.508;567.03690;51.62221
1089.80;  252.112;  256.075;  251.534;-207.16807;-18.86958
1090.33;  292.240;  294.075;  290.623;-93.45683;-8.51657
1090.87;  246.045;  227.075;  245.043;999.25280;91.10510
1091.41;  252.549;  254.075;  250.009;-84.50004;-7.70793
1091.95;  269.429;  239.075;  268.389;1623.38126;148.15464
1092.48;  279.401;  303.075;  278.026;-1300.65467;-118.76001
1093.02;  253.898;  228.075;  252.889;1444.35991;131.94625
1093.56;  272.996;  266.075;  271.308;390.48446;35.68935
1094.09;  246.891;  218.075;  245.545;1647.21165;150.62512
1094.63;  248.628;  266.075;  247.341;-997.06015;-91.21838
1095.17;  253.585;  202.075;  252.694;3069.74156;280.98019
1095.70;  267.638;  255.075;  266.036;753.10495;68.96713
1096.24;  256.180;  260.075;  255.484;-236.36015;-21.65576
1096.78;  253.649;  264.075;  251.560;-640.72132;-58.73283
1097.31;  255.001;  246.075;  253.844;567.29024;52.02708
1097.85;  262.051;  274.075;  260.774;-748.99398;-68.72500
1098.39;  246.174;  214.075;  244.909;2067.52103;189.80100
1098.92;  261.774;  253.075;  260.089;565.53413;51.94209
1099.46;  267.977;  251.075;  266.701;1119.76731;102.89642
1099.99;  257.064;  270.075;  255.243;-847.11554;-77.88017
1100.53;  262.827;  248.075;  261.759;1010.64884;92.96001

