
Integration time [ms]:   0.100
Averaging Nr. [scans]: 10000
Smoothing Nr. [pixels]: 0
Data measured with spectrometer [name]: 7213323SP
Wave   ;Sample   ;Dark     ;Reference;Absolute Irradiance  ;Photon Counts
[nm]   ;[counts] ;[counts] ;[counts] ;[µWatt/cm²/nm]       ;[µMol/s/m²/nm]

 175.65;  196.461;  213.075;  197.124; 0.00000; 0.00000
 176.25;  215.133;  207.077;  216.251; 0.00000; 0.00000
 176.85;  213.684;  214.076;  214.253; 0.00000; 0.00000
 177.45;  212.315;  204.076;  213.923; 0.00000; 0.00000
 178.05;  204.676;  182.076;  205.015; 0.00000; 0.00000
 178.65;  202.363;  203.075;  204.000; 0.00000; 0.00000
 179.25;  199.338;  202.074;  200.248; 0.00000; 0.00000
 179.85;  205.923;  216.076;  207.425; 0.00000; 0.00000
 180.45;  198.982;  195.075;  199.877; 0.00000; 0.00000
 181.05;  239.420;  252.074;  240.759; 0.00000; 0.00000
 181.65;  200.835;  190.075;  201.623; 0.00000; 0.00000
 182.25;  220.860;  244.074;  222.607; 0.00000; 0.00000
 182.86;  218.812;  235.075;  219.160; 0.00000; 0.00000
 183.46;  215.985;  210.075;  217.401; 0.00000; 0.00000
 184.06;  199.658;  209.076;  200.340; 0.00000; 0.00000
 184.66;  178.849;  194.075;  180.459; 0.00000; 0.00000
 185.26;  231.310;  223.068;  232.442; 0.00000; 0.00000
 185.86;  206.001;  216.066;  207.390; 0.00000; 0.00000
 186.46;  226.106;  256.066;  226.636; 0.00000; 0.00000
 187.06;  207.117;  203.067;  208.589; 0.00000; 0.00000
 187.66;  231.332;  206.067;  231.985; 0.00000; 0.00000
 188.26;  234.087;  214.067;  235.406; 0.00000; 0.00000
 188.86;  214.897;  199.067;  215.850; 0.00000; 0.00000
 189.46;  211.373;  229.067;  213.039; 0.00000; 0.00000
 190.06;  203.036;  236.066;  203.659; 0.00000; 0.00000
 190.66;  206.927;  224.068;  208.498; 0.00000; 0.00000
 191.26;  226.225;  216.066;  227.110; 0.00000; 0.00000
 191.86;  220.721;  200.067;  222.397; 0.00000; 0.00000
 192.46;  220.486;  191.066;  221.184; 0.00000; 0.00000
 193.06;  221.537;  207.067;  222.854; 0.00000; 0.00000
 193.66;  213.686;  221.067;  214.383; 0.00000; 0.00000
 194.26;  229.759;  215.068;  231.613; 0.00000; 0.00000
 194.86;  197.937;  183.067;  198.764; 0.00000; 0.00000
 195.46;  202.471;  178.067;  203.919; 0.00000; 0.00000
 196.06;  217.472;  190.068;  218.291; 0.00000; 0.00000
 196.66;  194.463;  197.068;  195.835; 0.00000; 0.00000
 197.26;  194.072;  172.068;  194.661; 0.00000; 0.00000
 197.86;  222.872;  240.067;  224.205; 0.00000; 0.00000
 198.46;  192.024;  192.067;  192.725; 0.00000; 0.00000
 199.06;  218.666;  188.067;  220.163; 0.00000; 0.00000
 199.66;  210.181;  191.067;  210.815; 0.00000; 0.00000
 200.26;  197.475;  201.067;  198.195;-41.42238;-0.69329
 200.85;  216.842;  191.069;  217.441;285.87734; 4.79906
 201.45;  207.813;  219.067;  209.096;-118.49955;-1.99520
 202.05;  208.321;  217.068;  209.097;-87.49419;-1.47754
 202.65;  203.173;  210.067;  205.053;-65.69302;-1.11267
 203.25;  194.761;  207.068;  195.251;-111.33003;-1.89122
 203.85;  207.577;  202.069;  208.956;47.71115; 0.81288
 204.45;  238.943;  208.067;  239.647;256.51190; 4.38321
 205.05;  183.283;  193.068;  184.515;-77.36885;-1.32593
 205.65;  191.613;  198.068;  192.138;-47.83116;-0.82212
 206.25;  217.688;  222.068;  219.004;-31.13061;-0.53663
 206.85;  197.898;  196.067;  198.397;12.35702; 0.21363
 207.45;  204.284;  193.068;  206.056;72.08173; 1.24977
 208.05;  194.599;  217.068;  195.157;-138.65600;-2.41099
 208.65;  195.737;  230.068;  197.157;-205.15756;-3.57761
 209.25;  188.729;  224.068;  189.041;-203.41352;-3.55738
 209.84;  216.266;  219.067;  217.507;-15.89431;-0.27876
 210.44;  198.911;  199.068;  198.876;-0.86697;-0.01525
 211.04;  232.709;  267.068;  234.048;-184.37040;-3.25204
 211.64;  199.189;  188.066;  199.892;56.99346; 1.00814
 212.24;  209.351;  209.068;  210.605; 1.39345; 0.02472
 212.84;  206.368;  190.067;  207.066;77.94967; 1.38663
 213.44;  192.196;  200.067;  193.775;-35.90103;-0.64043
 214.04;  192.758;  210.068;  193.567;-75.75388;-1.35516
 214.64;  208.620;  157.067;  210.055;215.42949; 3.86459
 215.24;  189.783;  205.068;  190.255;-61.92172;-1.11391
 215.83;  210.000;  204.067;  211.130;23.06431; 0.41606
 216.43;  179.694;  169.068;  179.390;40.00075; 0.72358
 217.03;  185.596;  170.067;  186.755;56.92044; 1.03249
 217.63;  192.310;  211.068;  193.198;-66.07965;-1.20194
 218.23;  200.554;  195.068;  202.169;18.98159; 0.34621
 218.83;  193.836;  205.068;  194.139;-37.71283;-0.68974
 219.43;  189.081;  167.068;  190.676;71.92656; 1.31909
 220.03;  184.574;  168.067;  184.680;52.18525; 0.95966
 220.62;  188.148;  150.068;  189.478;117.18975; 2.16091
 221.22;  200.108;  202.068;  200.888;-5.83477;-0.10788
 221.82;  205.241;  191.067;  206.530;41.39090; 0.76737
 222.42;  183.885;  152.067;  184.631;90.42422; 1.68094
 223.02;  195.523;  235.068;  197.200;-110.64841;-2.06243
 223.62;  190.009;  176.068;  190.524;38.46130; 0.71882
 224.22;  209.535;  190.068;  210.836;53.40739; 1.00083
 224.81;  205.389;  178.068;  205.982;74.70347; 1.40365
 225.41;  203.521;  211.068;  204.998;-20.43280;-0.38495
 226.01;  190.759;  196.068;  191.205;-14.23188;-0.26883
 226.61;  193.038;  193.068;  194.465;-0.07893;-0.00149
 227.21;  194.089;  202.069;  195.134;-20.31716;-0.38581
 227.81;  219.402;  214.068;  220.935;13.25924; 0.25245
 228.40;  188.260;  188.068;  188.771; 0.45958; 0.00877
 229.00;  195.899;  195.068;  197.589; 1.93208; 0.03698
 229.60;  200.681;  213.067;  201.442;-27.77559;-0.53300
 230.20;  226.420;  214.068;  228.400;26.60343; 0.51184
 230.80;  189.463;  162.068;  189.881;57.23121; 1.10397
 231.39;  185.093;  171.066;  186.138;28.46854; 0.55057
 231.99;  207.343;  186.069;  208.260;41.69413; 0.80843
 232.59;  234.307;  213.067;  235.936;40.73287; 0.79183
 233.19;  205.978;  174.067;  206.632;59.34871; 1.15668
 233.79;  218.712;  182.068;  219.931;66.55548; 1.30046
 234.38;  207.647;  208.068;  208.222;-0.75548;-0.01480
 234.98;  213.172;  182.068;  214.812;54.38704; 1.06813
 235.58;  219.353;  223.067;  220.165;-6.40072;-0.12603
 236.18;  230.907;  192.067;  231.987;65.84449; 1.29973
 236.78;  222.369;  194.067;  222.717;47.26814; 0.93541
 237.37;  236.621;  207.067;  238.339;48.74477; 0.96706
 237.97;  245.383;  216.066;  246.135;47.52260; 0.94519
 238.57;  246.941;  170.067;  248.058;123.30300; 2.45857
 239.17;  220.527;  195.067;  221.470;40.41075; 0.80778
 239.76;  241.809;  182.066;  242.999;94.43023; 1.89230
 240.36;  235.187;  188.066;  235.530;74.85813; 1.50383
 240.96;  263.185;  207.067;  264.536;88.88451; 1.79005
 241.56;  234.537;  184.067;  235.035;80.65048; 1.62825
 242.15;  246.794;  196.067;  247.926;81.18038; 1.64300
 242.75;  270.527;  234.067;  271.208;58.75258; 1.19202
 243.35;  252.127;  131.067;  253.777;198.36830; 4.03457
 243.95;  270.248;  196.066;  270.756;120.86631; 2.46431
 244.54;  283.262;  235.066;  284.152;78.84810; 1.61155
 245.14;  282.813;  193.067;  283.479;145.85089; 2.98828
 245.74;  305.403;  198.067;  306.754;172.48963; 3.54268
 246.34;  288.184;  192.067;  289.017;152.65751; 3.14298
 246.93;  311.285;  189.066;  312.369;189.84659; 3.91812
 247.53;  290.825;  140.067;  291.846;229.17294; 4.74120
 248.13;  365.926;  229.066;  367.721;202.11756; 4.19155
 248.73;  357.405;  200.067;  358.196;228.14972; 4.74280
 249.32;  347.896;  153.067;  348.988;275.37109; 5.73819
 249.92;  352.058;  181.067;  352.562;236.75383; 4.94530
 250.52;  406.638;  205.067;  407.782;272.90913; 5.71413
 251.11;  480.797;  213.066;  482.043;355.57551; 7.46273
 251.71;  666.541;  197.067;  669.434;617.95706;13.00037
 252.31; 1310.482;  181.067; 1315.841;1471.80066;31.03668
 252.91;11037.034;  219.066;11085.920;13900.49506;293.82104
 253.50;39659.702;  147.066;39738.397;50456.73625;1069.04436
 254.10;43188.217;  181.067;43140.127;54374.22732;1154.75847
 254.70;13567.096;  183.068;13486.508;16742.42490;356.39816
 255.29; 1264.461;  225.067; 1258.282;1303.31258;27.80880
 255.89;  526.284;  180.066;  526.364;431.40746; 9.22647
 256.49;  403.166;  162.067;  403.852;299.67342; 6.42403
 257.08;  362.861;  189.067;  362.603;214.52960; 4.60953
 257.68;  352.106;  204.068;  353.361;183.16418; 3.94472
 258.28;  330.471;  179.066;  332.045;185.34114; 4.00085
 258.87;  315.080;  211.067;  316.058;128.11733; 2.77198
 259.47;  288.950;  190.067;  289.669;121.22281; 2.62886
 260.07;  289.435;  217.067;  290.644;89.47521; 1.94484
 260.66;  261.122;  167.068;  261.158;118.25162; 2.57622
 261.26;  301.575;  196.066;  302.604;133.37668; 2.91238
 261.86;  288.589;  208.067;  289.247;103.26019; 2.25991
 262.45;  256.554;  164.067;  257.979;121.26455; 2.65999
 263.05;  255.527;  193.067;  256.155;82.63450; 1.81675
 263.65;  249.853;  188.067;  251.047;82.55326; 1.81908
 264.24;  264.113;  197.067;  265.199;92.42387; 2.04118
 264.84;  298.661;  213.066;  300.117;119.99293; 2.65603
 265.44;  299.209;  177.066;  299.611;173.38234; 3.84644
 266.03;  261.522;  183.068;  262.240;112.09499; 2.49238
 266.63;  221.312;  167.066;  221.836;78.04328; 1.73915
 267.23;  229.626;  181.067;  230.938;69.50847; 1.55242
 267.82;  208.292;  185.067;  208.490;33.46089; 0.74899
 268.42;  213.719;  199.067;  214.845;20.80684; 0.46678
 269.01;  214.497;  176.066;  215.126;53.84445; 1.21062
 269.61;  222.317;  172.068;  223.322;69.51331; 1.56638
 270.21;  225.694;  157.067;  226.088;92.61218; 2.09150
 270.80;  240.117;  201.066;  241.374;51.58908; 1.16763
 271.40;  201.911;  144.066;  203.041;74.97489; 1.70066
 271.99;  235.358;  163.067;  236.625;91.66132; 2.08372
 272.59;  194.913;  183.067;  195.122;14.84794; 0.33828
 273.19;  202.099;  135.067;  202.996;81.54976; 1.86198
 273.78;  193.369;  193.067;  193.749; 0.36055; 0.00825
 274.38;  208.270;  159.066;  210.088;57.13104; 1.31013
 274.97;  228.188;  180.067;  228.717;54.86314; 1.26086
 275.57;  232.043;  194.066;  233.347;42.47974; 0.97838
 276.17;  195.609;  148.068;  196.042;52.36233; 1.20860
 276.76;  216.704;  193.068;  217.753;25.58326; 0.59177
 277.36;  214.125;  208.066;  214.989; 6.47883; 0.15019
 277.95;  218.310;  201.066;  219.525;17.98738; 0.41786
 278.55;  201.273;  184.067;  202.087;17.76854; 0.41366
 279.14;  219.733;  199.068;  220.932;21.15893; 0.49365
 279.74;  224.986;  199.067;  225.630;26.16063; 0.61164
 280.34;  221.121;  161.068;  222.422;59.75488; 1.40006
 280.93;  260.010;  235.067;  261.151;24.50978; 0.57548
 281.53;  215.686;  181.067;  216.320;33.63142; 0.79133
 282.12;  251.423;  196.069;  252.124;53.06695; 1.25128
 282.72;  248.650;  192.067;  250.383;53.67870; 1.26838
 283.31;  241.867;  179.068;  242.426;59.04003; 1.39800
 283.91;  205.678;  160.068;  206.736;42.66706; 1.01243
 284.50;  229.466;  173.068;  230.385;52.50175; 1.24841
 285.10;  237.073;  223.068;  237.689;12.97494; 0.30917
 285.69;  198.961;  143.069;  199.622;52.19026; 1.24619
 286.29;  220.958;  198.068;  222.243;21.34213; 0.51067
 286.89;  211.090;  183.067;  211.298;26.25042; 0.62942
 287.48;  214.082;  197.068;  215.804;16.20243; 0.38930
 288.08;  230.532;  210.068;  231.535;19.19891; 0.46225
 288.67;  223.260;  166.068;  224.656;54.11398; 1.30559
 289.27;  254.854;  182.068;  255.110;69.37664; 1.67728
 289.86;  247.932;  168.067;  248.804;76.40140; 1.85091
 290.46;  203.442;  179.069;  203.991;23.27899; 0.56512
 291.05;  208.392;  172.068;  209.359;34.46816; 0.83846
 291.65;  201.947;  192.068;  202.492; 9.33308; 0.22750
 292.24;  230.052;  210.068;  231.641;18.69350; 0.45659
 292.84;  214.883;  183.067;  215.325;29.43871; 0.72051
 293.43;  217.386;  168.069;  218.653;45.55550; 1.11723
 294.03;  214.656;  185.068;  215.348;26.58447; 0.65329
 294.62;  221.081;  211.068;  222.422; 8.90209; 0.21920
 295.22;  204.277;  184.068;  204.751;17.63278; 0.43507
 295.81;  231.425;  190.068;  232.481;35.47670; 0.87710
 296.41;  563.010;  207.068;  563.220;300.24084; 7.43790
 297.00;  960.113;  201.067;  959.541;627.49961;15.57630
 297.60;  589.397;  160.069;  587.334;350.35839; 8.71429
 298.19;  266.446;  181.069;  267.694;68.19750; 1.69963
 298.78;  224.754;  178.070;  225.166;36.78542; 0.91860
 299.38;  199.625;  158.068;  200.826;32.24198; 0.80675
 299.97;  226.819;  189.067;  227.567;28.98858; 0.72678
 300.57;  210.500;  215.069;  211.288;-3.45497;-0.08679
 301.16;  167.127;  161.068;  167.737; 4.52537; 0.11391
 301.76;  233.238;  224.067;  235.372; 6.70813; 0.16918
 302.35;  332.694;  190.068;  333.610;102.89308; 2.60011
 302.95;  337.301;  203.068;  338.237;93.09240; 2.35708
 303.54;  212.465;  176.069;  212.770;24.68140; 0.62615
 304.14;  198.973;  171.067;  200.074;18.37394; 0.46705
 304.73;  230.317;  209.068;  231.100;13.67708; 0.34834
 305.32;  215.539;  208.067;  217.117; 4.71241; 0.12025
 305.92;  195.940;  146.068;  196.333;31.08023; 0.79466
 306.51;  190.596;  141.068;  191.669;30.31804; 0.77668
 307.11;  210.198;  178.067;  211.235;19.33250; 0.49622
 307.70;  189.453;  173.069;  190.927; 9.69270; 0.24927
 308.29;  193.992;  153.068;  194.430;23.85303; 0.61462
 308.89;  200.879;  170.068;  202.159;17.81503; 0.45992
 309.48;  164.687;  165.070;  165.628;-0.21925;-0.00567
 310.08;  206.266;  164.067;  207.187;23.73826; 0.61519
 310.67;  214.483;  143.069;  213.991;40.12534; 1.04187
 311.27;  224.827;  175.069;  226.176;27.74889; 0.72189
 311.86;  424.412;  210.070;  425.186;118.15837; 3.07976
 312.45; 1191.006;  195.069; 1192.452;544.94842;14.23095
 313.05; 2239.910;  201.069; 2238.504;1105.95523;28.93615
 313.64; 2216.895;  204.069; 2211.875;1094.54427;28.69192
 314.23; 1183.297;  190.069; 1177.731;531.28845;13.95334
 314.83;  523.238;  188.068;  523.186;178.52561; 4.69752
 315.42;  366.338;  140.068;  366.133;121.02433; 3.19050
 316.02;  322.096;  167.068;  323.490;83.31607; 2.20055
 316.61;  291.336;  181.069;  291.581;58.72411; 1.55394
 317.20;  282.084;  156.068;  283.241;66.92058; 1.77415
 317.80;  254.135;  151.068;  254.572;55.08448; 1.46310
 318.39;  254.376;  173.069;  255.497;43.70022; 1.16289
 318.98;  271.860;  208.069;  272.047;34.54007; 0.92084
 319.58;  234.704;  189.069;  235.419;24.71577; 0.66015
 320.17;  234.382;  195.068;  234.827;21.62747; 0.57874
 320.76;  230.875;  198.067;  231.876;18.18749; 0.48759
 321.36;  222.393;  185.069;  222.975;20.62318; 0.55391
 321.95;  211.837;  181.068;  212.977;17.30000; 0.46551
 322.55;  231.571;  201.068;  232.083;17.18426; 0.46325
 323.14;  198.837;  160.068;  199.977;22.07762; 0.59626
 323.73;  201.328;  156.069;  202.161;26.13348; 0.70709
 324.33;  218.512;  195.070;  219.903;13.77056; 0.37327
 324.92;  210.063;  179.069;  211.017;18.51309; 0.50274
 325.51;  203.361;  181.069;  204.656;13.44224; 0.36571
 326.10;  196.424;  167.068;  197.249;17.84987; 0.48650
 326.70;  208.062;  203.069;  209.140; 3.07322; 0.08391
 327.29;  204.321;  196.069;  204.470; 5.13709; 0.14052
 327.88;  197.022;  192.068;  198.773; 3.08805; 0.08462
 328.48;  213.600;  173.068;  214.111;25.33716; 0.69560
 329.07;  215.582;  168.068;  216.562;29.68521; 0.81644
 329.66;  205.869;  184.069;  206.637;13.92104; 0.38356
 330.26;  207.098;  177.069;  208.646;19.02044; 0.52501
 330.85;  212.667;  209.070;  212.413; 2.27125; 0.06280
 331.44;  204.571;  173.069;  205.281;19.96841; 0.55315
 332.04;  204.676;  185.067;  205.228;12.28177; 0.34083
 332.63;  190.472;  143.069;  191.767;29.73305; 0.82659
 333.22;  208.125;  231.070;  208.847;-14.22085;-0.39605
 333.81;  244.483;  215.069;  245.782;17.96298; 0.50116
 334.41;  270.656;  189.069;  270.830;49.29622; 1.37779
 335.00;  245.374;  207.069;  246.712;22.77532; 0.63768
 335.59;  201.967;  222.068;  202.795;-11.83116;-0.33184
 336.18;  205.488;  184.069;  206.593;12.49861; 0.35118
 336.78;  184.261;  160.069;  184.879;13.85116; 0.38987
 337.37;  188.098;  187.070;  189.570; 0.57312; 0.01616
 337.96;  244.379;  242.068;  244.955; 1.26762; 0.03581
 338.55;  214.632;  200.069;  215.771; 7.85752; 0.22234
 339.15;  202.622;  217.070;  203.475;-7.69711;-0.21818
 339.74;  190.880;  181.069;  192.841; 5.19304; 0.14746
 340.33;  188.489;  196.069;  188.916;-4.03044;-0.11464
 340.92;  199.383;  194.069;  200.672; 2.86642; 0.08168
 341.52;  194.671;  167.070;  194.799;14.66882; 0.41870
 342.11;  189.618;  177.069;  190.986; 6.58258; 0.18822
 342.70;  178.356;  145.069;  178.880;17.40086; 0.49840
 343.29;  193.247;  197.070;  194.716;-1.99868;-0.05735
 343.89;  182.455;  204.067;  182.789;-11.30070;-0.32480
 344.48;  195.032;  212.069;  196.248;-8.74919;-0.25190
 345.07;  173.732;  189.069;  173.927;-7.86868;-0.22694
 345.66;  201.480;  195.069;  203.151; 3.31595; 0.09580
 346.25;  186.647;  167.069;  187.732;10.02631; 0.29016
 346.85;  199.039;  187.069;  200.878; 6.11320; 0.17721
 347.44;  179.798;  163.069;  179.807; 8.54987; 0.24827
 348.03;  186.939;  157.070;  188.066;15.20403; 0.44225
 348.62;  207.901;  196.070;  208.237; 6.05740; 0.17650
 349.21;  182.348;  196.069;  184.276;-7.08508;-0.20679
 349.81;  196.069;  190.069;  196.633; 3.09628; 0.09052
 350.40;  181.264;  188.069;  182.735;-3.52269;-0.10316
 350.99;  180.396;  183.069;  180.694;-1.40358;-0.04117
 351.58;  189.794;  177.069;  191.186; 6.74241; 0.19812
 352.17;  167.155;  159.069;  167.792; 4.29478; 0.12641
 352.77;  189.785;  202.070;  191.517;-6.61087;-0.19491
 353.36;  200.744;  169.070;  200.529;17.09368; 0.50483
 353.95;  200.102;  198.070;  201.571; 1.11744; 0.03306
 354.54;  180.973;  191.071;  181.348;-5.62587;-0.16671
 355.13;  199.276;  188.069;  200.409; 6.33393; 0.18800
 355.72;  205.611;  190.070;  206.141; 8.94440; 0.26592
 356.32;  194.214;  183.069;  195.485; 6.58158; 0.19600
 356.91;  215.312;  188.070;  216.091;16.33293; 0.48721
 357.50;  198.054;  184.070;  199.295; 8.48813; 0.25362
 358.09;  193.541;  169.070;  194.200;15.41000; 0.46120
 358.68;  198.451;  182.071;  199.544;10.48506; 0.31432
 359.27;  209.522;  198.068;  210.204; 7.59079; 0.22793
 359.86;  217.389;  203.068;  218.643; 9.82015; 0.29536
 360.46;  190.794;  137.068;  191.107;38.35589; 1.15552
 361.05;  207.706;  179.069;  208.650;20.73906; 0.62582
 361.64;  203.461;  166.068;  204.447;28.24441; 0.85369
 362.23;  212.661;  182.070;  213.148;23.87730; 0.72287
 362.82;  212.334;  198.070;  212.789;11.35265; 0.34426
 363.41;  230.247;  173.069;  231.318;47.40887; 1.43997
 364.00;  350.073;  190.070;  351.285;137.94830; 4.19677
 364.59; 1319.314;  186.069; 1322.137;1001.86265;30.52895
 365.19; 2601.576;  166.069; 2597.988;2244.88444;68.51746
 365.78; 2026.640;  188.069; 2020.250;1739.26069;53.17093
 366.37;  913.031;  209.070;  910.109;683.29752;20.92284
 366.96;  490.470;  192.069;  489.923;295.07254; 9.04981
 367.55;  286.258;  220.068;  285.854;65.28061; 2.00537
 368.14;  230.921;  200.069;  232.260;30.50356; 0.93855
 368.73;  234.778;  197.070;  235.253;37.42280; 1.15329
 369.32;  237.633;  193.069;  239.144;45.02877; 1.38992
 369.91;  229.881;  213.069;  230.213;16.92862; 0.52338
 370.50;  237.664;  227.070;  239.562;10.63060; 0.32919
 371.09;  222.994;  203.069;  223.402;20.00561; 0.62048
 371.69;  217.510;  151.069;  218.441;66.58922; 2.06858
 372.28;  214.219;  155.070;  214.873;59.18876; 1.84161
 372.87;  247.924;  235.069;  249.212;12.78131; 0.39831
 373.46;  217.478;  158.069;  217.578;58.43528; 1.82394
 374.05;  236.503;  208.070;  237.746;28.06464; 0.87736
 374.64;  240.501;  188.069;  240.929;51.09838; 1.59997
 375.23;  230.109;  162.069;  230.403;65.78419; 2.06306
 375.82;  252.305;  208.069;  253.342;42.16588; 1.32444
 376.41;  248.772;  202.069;  250.176;44.44171; 1.39812
 377.00;  249.631;  197.070;  250.115;49.44735; 1.55804
 377.59;  242.154;  213.069;  243.384;26.36283; 0.83197
 378.18;  245.432;  194.069;  246.408;46.33386; 1.46451
 378.77;  242.244;  183.070;  243.735;52.89032; 1.67435
 379.36;  237.885;  166.068;  238.204;63.43908; 2.01142
 379.95;  258.322;  195.069;  259.616;55.41216; 1.75965
 380.54;  255.397;  225.069;  256.022;25.87738; 0.82303
 381.13;  268.053;  216.068;  269.602;43.81308; 1.39564
 381.72;  239.638;  164.071;  240.174;62.25512; 1.98617
 382.31;  273.709;  232.069;  274.996;33.94838; 1.08475
 382.90;  259.912;  216.069;  260.327;35.20285; 1.12657
 383.49;  305.191;  243.068;  306.616;49.42078; 1.58402
 384.08;  250.309;  183.069;  250.896;52.44868; 1.68365
 384.67;  276.191;  207.071;  277.448;53.25674; 1.71222
 385.26;  274.173;  221.071;  275.593;39.90873; 1.28504
 385.85;  258.291;  197.068;  259.238;45.45897; 1.46600
 386.44;  275.573;  176.069;  276.092;73.75825; 2.38226
 387.03;  286.933;  230.069;  288.433;41.35809; 1.33783
 387.62;  253.939;  190.069;  254.075;45.60895; 1.47758
 388.21;  288.040;  177.068;  288.811;78.60747; 2.55050
 388.80;  272.359;  233.070;  272.541;27.41663; 0.89091
 389.39;  277.142;  187.069;  278.370;62.04837; 2.01934
 389.98;  280.523;  174.068;  281.336;72.07552; 2.34923
 390.57;  279.727;  188.069;  280.942;61.65182; 2.01251
 391.16;  288.719;  201.069;  289.371;58.11894; 1.90005
 391.75;  296.262;  199.068;  297.538;64.02463; 2.09628
 392.34;  297.996;  218.069;  298.382;51.79075; 1.69827
 392.93;  294.012;  196.069;  295.151;62.66958; 2.05809
 393.52;  270.230;  167.068;  270.392;65.59103; 2.15726
 394.11;  275.933;  211.068;  277.155;40.91311; 1.34763
 394.70;  317.111;  222.068;  317.943;59.43053; 1.96050
 395.29;  296.347;  196.069;  297.562;61.99329; 2.04810
 395.88;  285.190;  193.068;  285.879;57.43404; 1.90030
 396.47;  300.893;  166.069;  301.788;82.53967; 2.73503
 397.05;  286.162;  186.069;  286.576;61.52114; 2.04159
 397.64;  299.292;  202.068;  300.153;59.34498; 1.97230
 398.23;  291.264;  187.069;  291.359;63.46812; 2.11245
 398.82;  292.293;  191.069;  292.733;60.99578; 2.03317
 399.41;  283.919;  190.069;  284.428;56.66590; 1.89163
 400.00;  278.014;  182.068;  280.162;58.09500; 1.94220
 400.59;  302.006;  186.068;  302.666;70.00248; 2.34373
 401.18;  295.201;  172.067;  296.138;74.65587; 2.50320
 401.77;  291.826;  206.067;  292.041;51.82603; 1.74027
 402.36;  309.966;  224.067;  311.200;51.81648; 1.74250
 402.95;  306.452;  170.066;  306.776;82.75425; 2.78696
 403.53;  410.413;  196.066;  412.151;129.70494; 4.37452
 404.12; 1365.001;  187.066; 1365.622;708.06202;23.91547
 404.71; 2832.255;  192.065; 2824.701;1596.79394;54.01182
 405.30; 1983.597;  203.063; 1972.524;1085.88983;36.78384
 405.89;  583.754;  180.063;  581.864;244.06381; 8.27952
 406.48;  330.358;  185.062;  329.813;88.14886; 2.99466
 407.07;  307.126;  180.062;  308.307;77.64052; 2.64149
 407.66;  414.686;  191.061;  415.068;138.03791; 4.70312
 408.24;  409.234;  182.061;  410.206;139.44821; 4.75803
 408.83;  316.055;  203.059;  315.894;69.69431; 2.38143
 409.42;  259.329;  181.059;  260.127;48.41622; 1.65674
 410.01;  271.515;  191.059;  271.922;49.87474; 1.70911
 410.60;  278.783;  198.058;  280.094;51.09732; 1.75351
 411.19;  246.763;  168.058;  247.347;49.59765; 1.70449
 411.78;  245.451;  188.057;  246.914;36.71164; 1.26345
 412.36;  251.356;  193.058;  252.127;37.09188; 1.27836
 412.95;  254.526;  196.059;  255.840;37.60636; 1.29794
 413.54;  278.517;  224.058;  279.036;35.00609; 1.20992
 414.13;  267.786;  195.060;  268.949;47.21009; 1.63405
 414.72;  249.957;  169.061;  250.445;52.53475; 1.82093
 415.31;  249.744;  207.062;  251.147;27.97813; 0.97114
 415.89;  231.691;  187.062;  232.799;29.37090; 1.02092
 416.48;  247.163;  179.062;  248.138;45.27322; 1.57591
 417.07;  236.442;  182.064;  237.549;36.32686; 1.26628
 417.66;  264.665;  203.064;  266.217;41.36905; 1.44408
 418.25;  249.435;  202.061;  250.485;32.27291; 1.12814
 418.83;  243.782;  218.062;  244.791;17.50533; 0.61278
 419.42;  248.802;  212.062;  249.662;25.11822; 0.88051
 420.01;  249.396;  194.062;  250.590;38.06847; 1.33635
 420.60;  248.315;  198.062;  249.243;34.91207; 1.22726
 421.19;  267.681;  202.062;  268.800;45.99549; 1.61913
 421.77;  223.841;  166.062;  224.546;41.02317; 1.44611
 422.36;  250.544;  175.062;  251.616;53.39911; 1.88500
 422.95;  239.540;  192.064;  240.322;34.06871; 1.20431
 423.54;  253.902;  220.065;  255.533;24.34507; 0.86178
 424.12;  245.781;  264.065;  246.995;-13.21732;-0.46852
 424.71;  243.819;  202.062;  245.120;30.46009; 1.08124
 425.30;  252.101;  202.064;  252.778;36.61121; 1.30138
 425.89;  248.479;  229.063;  249.808;14.22328; 0.50628
 426.48;  240.304;  249.063;  241.319;-6.44909;-0.22987
 427.06;  231.126;  211.061;  232.660;14.88715; 0.53137
 427.65;  245.985;  208.063;  246.598;27.98844; 1.00037
 428.24;  222.553;  166.064;  224.053;42.01993; 1.50395
 428.83;  233.519;  193.063;  234.171;29.88576; 1.07112
 429.41;  242.981;  191.063;  244.781;38.69371; 1.38870
 430.00;  232.068;  204.063;  232.652;20.88760; 0.75067
 430.59;  264.869;  261.063;  265.345; 2.81095; 0.10116
 431.17;  249.813;  220.063;  250.147;22.17492; 0.79912
 431.76;  250.039;  209.063;  251.124;30.53707; 1.10196
 432.35;  264.430;  206.064;  265.154;43.46205; 1.57050
 432.94;  266.093;  225.064;  267.247;30.45882; 1.10213
 433.52;  284.175;  249.066;  284.348;25.87362; 0.93748
 434.11;  329.567;  251.064;  330.245;57.72549; 2.09441
 434.70;  498.495;  249.064;  499.517;183.66575; 6.67282
 435.29; 2505.518;  240.065; 2509.315;1667.63264;60.66916
 435.87; 5553.452;  195.063; 5540.186;3917.17442;142.70061
 436.46; 3692.770;  243.065; 3672.949;2514.90566;91.74008
 437.05;  800.216;  210.065;  794.604;429.68393;15.69532
 437.63;  311.947;  227.064;  312.726;61.51554; 2.25003
 438.22;  270.126;  207.063;  270.829;45.37765; 1.66199
 438.81;  271.636;  212.064;  273.448;42.83248; 1.57087
 439.39;  238.311;  186.064;  238.867;37.45964; 1.37566
 439.98;  250.395;  220.065;  251.594;21.41142; 0.78736
 440.57;  244.385;  208.064;  244.779;25.73869; 0.94775
 441.15;  235.417;  190.064;  236.612;31.66843; 1.16764
 441.74;  241.255;  223.065;  241.815;12.73158; 0.47005
 442.33;  245.866;  218.065;  247.311;19.26360; 0.71216
 442.91;  240.145;  219.065;  240.412;14.53353; 0.53800
 443.50;  230.226;  229.064;  231.746; 0.79392; 0.02943
 444.09;  221.047;  226.064;  221.485;-3.38409;-0.12560
 444.67;  252.599;  232.065;  254.396;13.59496; 0.50526
 445.26;  232.338;  202.065;  233.103;20.09738; 0.74791
 445.85;  244.971;  208.064;  246.411;24.34964; 0.90734
 446.43;  230.945;  229.065;  231.136; 1.22917; 0.04586
 447.02;  230.302;  212.065;  231.548;11.87739; 0.44375
 447.61;  213.028;  145.065;  213.281;43.55877; 1.62954
 448.19;  235.250;  224.066;  236.677; 7.09710; 0.26585
 448.78;  226.900;  185.065;  227.479;26.22953; 0.98382
 449.36;  228.799;  219.066;  230.063; 6.07550; 0.22818
 449.95;  223.170;  215.066;  223.727; 5.00932; 0.18838
 450.54;  219.344;  209.065;  220.653; 6.27789; 0.23639
 451.12;  242.059;  245.066;  242.816;-1.82361;-0.06876
 451.71;  204.766;  199.066;  206.568; 3.42494; 0.12930
 452.30;  231.966;  216.066;  232.287; 9.41645; 0.35596
 452.88;  221.134;  190.065;  222.385;18.38745; 0.69598
 453.47;  205.775;  193.065;  206.555; 7.42739; 0.28150
 454.05;  213.204;  161.066;  214.389;30.26469; 1.14851
 454.64;  224.473;  198.065;  225.509;15.25067; 0.57949
 455.22;  238.449;  231.066;  239.459; 4.19603; 0.15965
 455.81;  203.325;  204.066;  203.971;-0.42190;-0.01607
 456.40;  237.848;  207.065;  239.299;17.30882; 0.66024
 456.98;  213.979;  193.066;  214.554;11.70013; 0.44687
 457.57;  230.462;  226.067;  231.236; 2.43272; 0.09303
 458.15;  237.062;  214.066;  237.294;12.68535; 0.48574
 458.74;  221.390;  211.066;  222.022; 5.70215; 0.21862
 459.33;  227.362;  200.066;  228.220;14.93526; 0.57336
 459.91;  226.795;  211.065;  228.183; 8.56323; 0.32916
 460.50;  226.902;  188.065;  227.534;21.07312; 0.81105
 461.08;  217.424;  196.066;  218.687;11.51730; 0.44384
 461.67;  221.147;  192.066;  221.441;15.59033; 0.60156
 462.25;  223.265;  223.067;  224.622; 0.10677; 0.00413
 462.84;  194.388;  170.066;  195.057;12.94943; 0.50093
 463.42;  211.861;  197.067;  213.261; 7.89293; 0.30571
 464.01;  216.138;  211.067;  216.526; 2.68944; 0.10430
 464.59;  224.245;  205.067;  225.581;10.15672; 0.39439
 465.18;  212.206;  184.066;  213.049;14.90982; 0.57968
 465.76;  217.009;  166.067;  218.247;26.95324; 1.04923
 466.35;  217.451;  183.067;  218.172;18.07381; 0.70446
 466.94;  226.197;  208.066;  227.155; 9.49563; 0.37057
 467.52;  236.920;  209.067;  237.460;14.55321; 0.56866
 468.11;  199.616;  175.068;  200.790;12.88924; 0.50427
 468.69;  196.068;  188.067;  196.765; 4.17061; 0.16337
 469.28;  185.364;  172.067;  186.754; 6.90729; 0.27091
 469.86;  221.626;  207.068;  222.525; 7.57356; 0.29741
 470.45;  214.220;  191.067;  215.458;12.04307; 0.47352
 471.03;  195.621;  192.068;  196.040; 1.84674; 0.07270
 471.62;  205.735;  231.069;  206.769;-13.11592;-0.51699
 472.20;  210.088;  235.067;  210.575;-12.95801;-0.51140
 472.79;  244.291;  224.067;  245.666;10.46039; 0.41334
 473.37;  209.214;  214.067;  209.758;-2.52848;-0.10004
 473.95;  206.225;  209.067;  207.314;-1.48094;-0.05866
 474.54;  167.337;  150.067;  167.311; 9.01730; 0.35764
 475.12;  232.777;  246.068;  234.405;-6.93836;-0.27552
 475.71;  214.284;  195.069;  214.801;10.10262; 0.40167
 476.29;  218.502;  196.068;  219.487;11.84218; 0.47141
 476.88;  195.034;  181.069;  195.930; 7.35463; 0.29313
 477.46;  194.447;  186.068;  195.657; 4.42318; 0.17651
 478.05;  201.604;  188.068;  202.488; 7.19550; 0.28749
 478.63;  205.352;  184.069;  206.415;11.26532; 0.45065
 479.22;  186.141;  167.068;  186.945;10.13129; 0.40578
 479.80;  210.242;  201.068;  211.444; 4.89759; 0.19640
 480.38;  207.266;  178.068;  207.651;15.65447; 0.62852
 480.97;  188.061;  169.068;  189.564;10.17657; 0.40908
 481.55;  201.672;  197.068;  202.041; 2.48127; 0.09986
 482.14;  221.466;  228.068;  223.144;-3.55720;-0.14334
 482.72;  196.875;  229.069;  197.545;-17.42927;-0.70319
 483.31;  192.562;  194.068;  193.636;-0.81864;-0.03307
 483.89;  198.256;  205.069;  199.001;-3.72656;-0.15071
 484.47;  196.661;  177.068;  197.810;10.71719; 0.43396
 485.06;  188.087;  177.068;  188.588; 6.07637; 0.24634
 485.64;  211.202;  233.068;  212.099;-12.12760;-0.49225
 486.23;  216.824;  196.068;  217.186;11.58887; 0.47095
 486.81;  208.983;  203.069;  209.975; 3.30109; 0.13431
 487.39;  179.500;  183.069;  179.769;-2.00145;-0.08153
 487.98;  190.942;  169.069;  192.361;12.36843; 0.50444
 488.56;  220.878;  211.068;  221.396; 5.55761; 0.22694
 489.15;  189.998;  211.069;  191.586;-12.07333;-0.49358
 489.73;  194.303;  226.069;  195.039;-18.26606;-0.74764
 490.31;  193.241;  188.069;  194.763; 2.97829; 0.12205
 490.90;  197.377;  173.068;  197.118;14.16410; 0.58113
 491.48;  207.315;  180.069;  208.046;16.00735; 0.65754
 492.06;  219.325;  196.069;  219.813;13.62302; 0.56026
 492.65;  182.010;  188.070;  182.962;-3.58989;-0.14781
 493.23;  169.797;  175.069;  170.560;-3.15301;-0.12998
 493.82;  202.875;  191.068;  204.190; 7.04968; 0.29096
 494.40;  169.787;  165.069;  170.517; 2.85059; 0.11779
 494.98;  187.667;  195.068;  189.401;-4.49582;-0.18599
 495.57;  169.582;  149.069;  169.638;12.55586; 0.52005
 496.15;  165.601;  194.069;  167.170;-17.57792;-0.72891
 496.73;  180.795;  180.069;  181.016; 0.45106; 0.01873
 497.32;  201.235;  205.070;  202.675;-2.37747;-0.09882
 497.90;  200.368;  166.069;  201.187;21.40985; 0.89094
 498.48;  174.448;  169.071;  175.832; 3.39765; 0.14155
 499.07;  181.659;  168.069;  182.346; 8.59509; 0.35851
 499.65;  199.676;  215.070;  201.050;-9.80620;-0.40951
 500.23;  166.843;  199.069;  167.245;-20.62278;-0.86221
 500.82;  177.727;  168.069;  178.596; 6.23054; 0.26079
 501.40;  181.237;  193.069;  181.515;-7.65440;-0.32077
 501.98;  193.621;  161.069;  194.887;21.05861; 0.88351
 502.56;  207.418;  190.070;  207.849;11.33339; 0.47604
 503.15;  206.920;  210.070;  207.963;-2.05967;-0.08661
 503.73;  190.823;  183.069;  191.213; 5.09985; 0.21471
 504.31;  191.855;  187.070;  192.942; 3.15774; 0.13310
 504.90;  201.196;  213.070;  201.524;-7.88569;-0.33276
 505.48;  212.438;  200.070;  213.800; 8.22512; 0.34749
 506.06;  199.684;  214.069;  200.218;-9.63275;-0.40742
 506.64;  184.566;  162.069;  185.652;15.09146; 0.63904
 507.23;  191.904;  204.069;  192.320;-8.18671;-0.34706
 507.81;  201.790;  157.069;  202.780;30.09308; 1.27721
 508.39;  191.217;  195.068;  191.654;-2.59706;-0.11035
 508.97;  198.695;  174.070;  199.918;16.62578; 0.70725
 509.56;  209.396;  226.069;  209.829;-11.31180;-0.48175
 510.14;  174.911;  137.070;  175.880;25.56391; 1.08996
 510.72;  192.624;  197.069;  193.344;-3.02006;-0.12891
 511.30;  201.537;  188.070;  202.576; 9.12576; 0.38998
 511.89;  200.652;  216.069;  201.363;-10.47931;-0.44833
 512.47;  194.448;  188.070;  195.975; 4.31458; 0.18480
 513.05;  192.331;  187.070;  192.669; 3.59348; 0.15409
 513.63;  192.010;  181.068;  193.307; 7.47132; 0.32073
 514.22;  204.207;  195.071;  204.618; 6.18613; 0.26586
 514.80;  201.723;  223.070;  203.236;-14.45411;-0.62190
 515.38;  194.380;  187.069;  194.736; 4.95182; 0.21330
 515.96;  214.476;  214.070;  215.845; 0.27530; 0.01187
 516.55;  187.922;  207.070;  188.530;-13.02424;-0.56228
 517.13;  198.422;  216.070;  199.679;-12.08960;-0.52252
 517.71;  184.109;  170.069;  184.615; 9.65487; 0.41776
 518.29;  183.272;  190.070;  185.139;-4.67855;-0.20267
 518.87;  197.962;  204.069;  198.235;-4.22335;-0.18315
 519.46;  188.277;  234.070;  189.507;-31.75429;-1.37862
 520.04;  192.774;  169.070;  193.575;16.29826; 0.70839
 520.62;  180.953;  182.069;  181.989;-0.77345;-0.03365
 521.20;  178.555;  208.069;  179.454;-20.50624;-0.89328
 521.78;  194.491;  195.069;  195.762;-0.39983;-0.01744
 522.36;  191.284;  194.069;  192.098;-1.92722;-0.08414
 522.95;  189.663;  191.069;  191.278;-0.97299;-0.04253
 523.53;  179.211;  170.069;  179.953; 6.33343; 0.27712
 524.11;  189.746;  163.070;  190.820;18.31629; 0.80233
 524.69;  185.830;  236.070;  186.432;-34.63041;-1.51864
 525.27;  187.246;  184.070;  188.560; 2.18807; 0.09606
 525.85;  198.667;  182.070;  199.408;11.39576; 0.50084
 526.44;  197.858;  212.069;  199.220;-9.71358;-0.42738
 527.02;  207.634;  210.069;  207.529;-1.65885;-0.07307
 527.60;  199.523;  181.069;  200.751;12.57185; 0.55437
 528.18;  183.775;  195.069;  184.521;-7.66532;-0.33838
 528.76;  211.989;  220.069;  213.221;-5.47397;-0.24191
 529.34;  197.813;  185.069;  198.458; 8.60746; 0.38081
 529.92;  213.762;  214.069;  215.360;-0.20524;-0.00909
 530.51;  204.580;  181.070;  204.989;15.71534; 0.69680
 531.09;  195.052;  180.069;  196.483; 9.99272; 0.44355
 531.67;  190.534;  181.070;  191.529; 6.29037; 0.27952
 532.25;  213.671;  245.069;  214.847;-20.77340;-0.92409
 532.83;  215.207;  218.069;  215.728;-1.89839;-0.08454
 533.41;  190.507;  207.069;  191.697;-10.83566;-0.48307
 533.99;  216.326;  223.070;  216.939;-4.38759;-0.19582
 534.57;  233.302;  219.070;  234.686; 9.23913; 0.41279
 535.15;  198.038;  177.071;  198.566;13.54692; 0.60592
 535.74;  191.614;  194.069;  193.094;-1.57753;-0.07064
 536.32;  197.496;  236.070;  198.460;-24.75018;-1.10941
 536.90;  187.518;  172.068;  189.059; 9.92498; 0.44536
 537.48;  202.416;  182.069;  203.509;12.91474; 0.58015
 538.06;  219.751;  251.069;  220.889;-19.82256;-0.89142
 538.64;  207.699;  220.069;  208.206;-7.80404;-0.35133
 539.22;  197.772;  157.070;  198.983;25.59793; 1.15362
 539.80;  205.902;  239.070;  206.729;-20.84420;-0.94040
 540.38;  220.521;  210.070;  221.523; 6.53338; 0.29507
 540.96;  191.360;  154.069;  191.617;23.13690; 1.04608
 541.54;  199.718;  199.070;  201.369; 0.40188; 0.01819
 542.12;  245.543;  257.069;  245.893;-7.12082;-0.32264
 542.70;  195.662;  200.070;  197.070;-2.72399;-0.12356
 543.28;  221.753;  204.069;  222.532;10.87099; 0.49362
 543.86;  226.925;  184.070;  228.149;26.37216; 1.19875
 544.44;  306.605;  234.070;  307.535;43.83735; 1.99476
 545.02;  504.830;  209.069;  507.313;179.47309; 8.17541
 545.61; 3253.287;  199.070; 3254.256;1843.74090;84.07602
 546.19; 5529.089;  227.070; 5509.464;3196.41620;145.91408
 546.77; 2522.478;  195.070; 2502.492;1400.54220;64.00165
 547.35;  509.967;  204.070;  508.682;181.80787; 8.31703
 547.93;  264.357;  223.069;  264.805;24.55468; 1.12448
 548.51;  236.830;  176.069;  237.798;35.97825; 1.64936
 549.09;  236.657;  210.070;  236.886;15.69416; 0.72023
 549.67;  229.582;  224.070;  230.586; 3.24129; 0.14891
 550.25;  209.136;  197.069;  209.776; 7.08311; 0.32574
 550.83;  229.609;  230.070;  231.194;-0.26969;-0.01242
 551.41;  215.519;  209.070;  216.577; 3.76179; 0.17336
 551.99;  211.482;  210.069;  212.792; 0.82145; 0.03790
 552.57;  213.954;  217.069;  214.222;-1.80273;-0.08325
 553.15;  229.342;  239.069;  230.676;-5.61364;-0.25952
 553.73;  190.154;  170.070;  190.612;11.52681; 0.53345
 554.30;  219.105;  217.070;  220.451; 1.16506; 0.05397
 554.88;  206.802;  186.069;  207.223;11.86611; 0.55031
 555.46;  214.125;  207.070;  215.473; 4.00357; 0.18586
 556.04;  208.122;  218.069;  208.774;-5.63302;-0.26178
 556.62;  229.559;  256.069;  230.704;-15.00675;-0.69814
 557.20;  193.426;  183.069;  193.958; 5.84402; 0.27216
 557.78;  215.069;  204.070;  216.555; 6.15896; 0.28712
 558.36;  229.405;  234.069;  230.461;-2.60705;-0.12166
 558.94;  226.869;  232.069;  228.152;-2.90104;-0.13552
 559.52;  200.600;  203.069;  201.631;-1.37237;-0.06418
 560.10;  215.084;  230.069;  216.446;-8.32890;-0.38989
 560.68;  215.750;  209.069;  216.865; 3.68430; 0.17265
 561.26;  235.048;  230.070;  236.072; 2.74503; 0.12877
 561.84;  195.166;  175.070;  195.366;11.13559; 0.52290
 562.42;  208.651;  246.067;  210.211;-20.62868;-0.96967
 563.00;  215.755;  224.070;  216.501;-4.56515;-0.21481
 563.58;  211.969;  197.069;  213.468; 8.17599; 0.38511
 564.15;  211.639;  220.069;  212.158;-4.62285;-0.21797
 564.73;  217.835;  202.069;  219.097; 8.59219; 0.40555
 565.31;  229.678;  254.069;  230.091;-13.31824;-0.62926
 565.89;  193.327;  143.069;  195.044;27.46733; 1.29910
 566.47;  205.279;  193.068;  205.993; 6.65408; 0.31504
 567.05;  225.113;  221.070;  226.638; 2.20362; 0.10444
 567.63;  210.147;  216.069;  210.822;-3.21564;-0.15255
 568.21;  202.240;  216.069;  203.441;-7.47973;-0.35521
 568.79;  227.400;  210.069;  228.081; 9.35683; 0.44481
 569.36;  250.413;  259.068;  251.837;-4.66974;-0.22222
 569.94;  204.429;  209.068;  204.974;-2.51984;-0.12003
 570.52;  222.987;  247.070;  224.452;-12.96859;-0.61838
 571.10;  173.099;  183.069;  173.950;-5.37080;-0.25636
 571.68;  214.167;  194.068;  215.375;10.81869; 0.51692
 572.26;  222.093;  226.069;  223.075;-2.13760;-0.10224
 572.84;  227.453;  237.069;  228.942;-5.18545;-0.24826
 573.41;  206.640;  248.069;  207.378;-22.32009;-1.06969
 573.99;  248.793;  240.068;  250.150; 4.70942; 0.22593
 574.57;  214.979;  176.068;  215.987;20.94037; 1.00559
 575.15;  249.219;  226.068;  250.291;12.49070; 0.60043
 575.73;  254.687;  219.068;  255.361;19.29701; 0.92854
 576.31;  552.907;  191.069;  554.478;196.59560; 9.46937
 576.88; 1083.340;  199.069; 1081.155;478.19406;23.05617
 577.46;  795.497;  207.069;  793.446;317.92156;15.34398
 578.04;  348.501;  206.069;  348.601;77.23901; 3.73155
 578.62;  833.906;  190.070;  834.915;351.78650;17.01242
 579.20; 1146.153;  206.069; 1143.102;514.40139;24.90134
 579.78;  566.732;  226.069;  565.341;185.68599; 8.99773
 580.35;  252.066;  230.067;  252.074;12.00907; 0.58250
 580.93;  210.091;  208.070;  211.588; 1.10606; 0.05370
 581.51;  222.125;  222.068;  222.586; 0.03088; 0.00150
 582.09;  198.875;  206.069;  199.601;-3.95202;-0.19227
 582.67;  198.202;  204.069;  198.456;-3.22721;-0.15716
 583.24;  199.351;  216.069;  200.550;-9.22070;-0.44948
 583.82;  203.441;  201.069;  204.018; 1.30615; 0.06373
 584.40;  199.723;  206.068;  201.141;-3.51737;-0.17180
 584.98;  198.765;  236.069;  199.478;-20.62927;-1.00859
 585.55;  211.666;  195.068;  212.408; 9.16728; 0.44864
 586.13;  185.653;  183.068;  186.125; 1.42536; 0.06983
 586.71;  206.529;  211.069;  207.550;-2.50862;-0.12301
 587.29;  200.714;  220.069;  201.367;-10.67760;-0.52410
 587.86;  202.108;  215.068;  203.177;-7.17676;-0.35261
 588.44;  166.029;  174.068;  166.709;-4.45227;-0.21897
 589.02;  215.934;  210.068;  217.206; 3.25335; 0.16016
 589.60;  195.202;  180.069;  195.888; 8.41622; 0.41473
 590.17;  206.878;  205.068;  208.143; 1.00980; 0.04981
 590.75;  184.932;  180.067;  185.231; 2.72953; 0.13477
 591.33;  183.262;  224.068;  184.796;-22.99481;-1.13646
 591.91;  194.665;  196.070;  194.784;-0.79358;-0.03926
 592.48;  186.812;  169.069;  188.356;10.10938; 0.50060
 593.06;  206.676;  177.069;  207.143;16.90099; 0.83773
 593.64;  200.986;  211.069;  202.345;-5.79488;-0.28751
 594.21;  187.836;  197.068;  188.240;-5.35258;-0.26583
 594.79;  198.346;  189.068;  199.848; 5.39451; 0.26817
 595.37;  202.296;  185.068;  202.607;10.05190; 0.50018
 595.95;  183.205;  175.069;  184.790; 4.77554; 0.23786
 596.52;  189.391;  182.068;  189.804; 4.29240; 0.21400
 597.10;  195.279;  195.069;  196.506; 0.12401; 0.00619
 597.68;  181.741;  153.068;  181.878;16.90494; 0.84445
 598.25;  204.582;  215.068;  205.859;-6.23902;-0.31196
 598.83;  183.104;  196.068;  183.373;-7.78349;-0.38956
 599.41;  196.416;  194.068;  198.274; 1.41354; 0.07081
 599.98;  222.592;  234.069;  223.101;-6.92510;-0.34726
 600.56;  210.311;  209.067;  211.465; 0.75628; 0.03796
 601.14;  196.824;  232.068;  197.119;-21.45848;-1.07812
 601.71;  199.030;  219.069;  200.322;-12.25422;-0.61627
 602.29;  186.119;  194.068;  186.949;-4.87684;-0.24549
 602.87;  208.368;  210.068;  210.567;-1.05029;-0.05292
 603.44;  204.433;  207.068;  205.035;-1.63334;-0.08238
 604.02;  196.981;  157.068;  198.021;24.83607; 1.25380
 604.60;  216.583;  244.068;  217.296;-17.18493;-0.86837
 605.17;  221.457;  232.067;  223.074;-6.69054;-0.33840
 605.75;  213.206;  180.069;  213.710;20.88385; 1.05730
 606.33;  203.376;  214.068;  205.364;-6.78632;-0.34390
 606.90;  226.074;  233.068;  226.341;-4.44991;-0.22572
 607.48;  213.605;  225.068;  214.698;-7.36188;-0.37378
 608.05;  193.015;  223.067;  193.587;-19.35019;-0.98338
 608.63;  199.805;  191.067;  201.671; 5.66066; 0.28795
 609.21;  191.591;  182.068;  191.582; 6.21090; 0.31624
 609.78;  218.169;  207.068;  219.962; 7.22314; 0.36812
 610.36;  207.018;  191.067;  207.229;10.44278; 0.53271
 610.93;  210.734;  224.066;  212.139;-8.79675;-0.44917
 611.51;  193.886;  202.068;  194.288;-5.39335;-0.27565
 612.09;  221.330;  230.068;  222.213;-5.80502;-0.29697
 612.66;  204.685;  216.067;  205.301;-7.59340;-0.38882
 613.24;  216.408;  200.066;  217.650;10.92052; 0.55971
 613.81;  222.269;  203.067;  222.991;12.91521; 0.66257
 614.39;  216.481;  240.068;  217.674;-15.92688;-0.81784
 614.96;  233.024;  230.068;  233.818; 1.99763; 0.10267
 615.54;  216.243;  215.067;  217.483; 0.80227; 0.04127
 616.12;  225.760;  201.067;  226.129;16.81650; 0.86595
 616.69;  182.773;  186.068;  184.323;-2.26946;-0.11697
 617.27;  212.978;  183.068;  212.911;20.63220; 1.06442
 617.84;  192.547;  182.068;  193.897; 7.24968; 0.37436
 618.42;  227.343;  224.067;  227.590; 2.27842; 0.11776
 618.99;  210.283;  195.067;  211.552;10.59468; 0.54811
 619.57;  229.483;  216.068;  230.207; 9.38454; 0.48596
 620.14;  218.556;  212.067;  219.830; 4.55761; 0.23622
 620.72;  198.003;  172.067;  199.309;18.26606; 0.94762
 621.30;  221.001;  227.069;  222.398;-4.28961;-0.22275
 621.87;  229.601;  206.066;  230.361;16.72772; 0.86942
 622.45;  218.426;  181.068;  220.061;26.68362; 1.38816
 623.02;  193.568;  169.067;  193.981;17.53845; 0.91325
 623.60;  202.966;  187.066;  204.278;11.44509; 0.59651
 624.17;  210.399;  204.067;  210.958; 4.54578; 0.23714
 624.75;  218.236;  200.067;  220.137;13.15325; 0.68680
 625.32;  208.097;  193.067;  208.458;10.91498; 0.57045
 625.90;  210.932;  227.066;  211.965;-11.78691;-0.61659
 626.47;  224.080;  240.067;  225.220;-11.68999;-0.61208
 627.05;  193.695;  189.065;  195.063; 3.39343; 0.17784
 627.62;  212.460;  211.067;  212.979; 1.02682; 0.05386
 628.20;  232.911;  245.067;  233.914;-8.95814;-0.47033
 628.77;  227.469;  216.066;  227.627; 8.44607; 0.44385
 629.34;  245.812;  249.065;  246.959;-2.41228;-0.12689
 629.92;  203.335;  161.066;  203.761;31.50467; 1.65865
 630.49;  227.515;  222.066;  228.904; 4.07652; 0.21481
 631.07;  204.044;  199.067;  204.312; 3.73123; 0.19680
 631.64;  201.543;  193.067;  203.111; 6.36915; 0.33624
 632.22;  246.184;  247.066;  246.837;-0.66549;-0.03516
 632.79;  219.884;  241.066;  221.275;-15.99126;-0.84574
 633.37;  228.136;  210.067;  228.563;13.71445; 0.72598
 633.94;  221.695;  186.066;  222.631;27.15412; 1.43873
 634.52;  216.356;  195.067;  217.020;16.24215; 0.86135
 635.09;  229.165;  208.067;  230.541;16.11932; 0.85561
 635.66;  196.807;  215.066;  197.408;-13.95345;-0.74132
 636.24;  209.262;  200.068;  210.984; 7.06685; 0.37579
 636.81;  251.353;  240.066;  252.326; 8.66945; 0.46142
 637.39;  233.148;  220.065;  233.903;10.05632; 0.53572
 637.96;  229.644;  223.066;  231.150; 5.06793; 0.27022
 638.54;  229.107;  250.066;  230.708;-16.21388;-0.86530
 639.11;  208.526;  225.067;  209.058;-12.83628;-0.68566
 639.68;  231.800;  221.067;  232.765; 8.35581; 0.44673
 640.26;  216.216;  201.066;  216.537;11.79405; 0.63112
 640.83;  216.645;  216.066;  218.213; 0.45250; 0.02424
 641.41;  211.849;  188.066;  212.304;18.53173; 0.99344
 641.98;  216.666;  211.066;  217.764; 4.39082; 0.23559
 642.55;  196.545;  177.066;  197.321;15.26463; 0.81976
 643.13;  212.144;  231.066;  214.107;-14.84427;-0.79790
 643.70;  232.301;  235.067;  232.847;-2.17896;-0.11723
 644.27;  216.965;  205.067;  218.677; 9.33075; 0.50244
 644.85;  209.097;  192.067;  209.942;13.47050; 0.72600
 645.42;  214.476;  227.067;  215.899;-9.93838;-0.53611
 645.99;  206.652;  190.067;  207.492;13.13550; 0.70920
 646.57;  208.910;  220.067;  210.121;-8.82429;-0.47686
 647.14;  216.420;  219.067;  217.002;-2.09389;-0.11325
 647.72;  192.660;  191.067;  194.840; 1.26623; 0.06855
 648.29;  208.025;  184.067;  208.412;18.95356; 1.02696
 648.86;  230.500;  210.067;  231.717;16.24749; 0.88112
 649.44;  198.707;  221.067;  199.109;-17.77930;-0.96504
 650.01;  207.750;  194.067;  209.288;10.90124; 0.59223
 650.58;  219.282;  230.067;  219.645;-8.60199;-0.46773
 651.16;  214.393;  231.067;  215.826;-13.31582;-0.72468
 651.73;  204.269;  196.067;  204.601; 6.51960; 0.35513
 652.30;  220.261;  223.067;  222.079;-2.23728;-0.12197
 652.87;  208.044;  202.067;  208.553; 4.77637; 0.26063
 653.45;  227.231;  244.067;  228.196;-13.45625;-0.73490
 654.02;  202.385;  208.067;  203.029;-4.54670;-0.24853
 654.59;  211.034;  211.067;  212.563;-0.02622;-0.00143
 655.17;  216.844;  224.067;  217.304;-5.73393;-0.31398
 655.74;  200.048;  178.067;  201.571;17.49565; 0.95886
 656.31;  213.063;  209.067;  213.491; 3.17766; 0.17431
 656.89;  213.799;  209.067;  214.739; 3.75006; 0.20588
 657.46;  220.831;  198.067;  221.505;18.06716; 0.99278
 658.03;  226.391;  237.067;  227.696;-8.46879;-0.46576
 658.60;  209.802;  226.067;  211.182;-12.85569;-0.70764
 659.18;  223.847;  229.067;  225.206;-4.10311;-0.22605
 659.75;  209.117;  221.067;  209.641;-9.36702;-0.51650
 660.32;  226.983;  220.067;  228.577; 5.41065; 0.29861
 660.89;  208.310;  225.067;  208.384;-13.08260;-0.72264
 661.47;  225.733;  236.067;  227.302;-8.04230;-0.44461
 662.04;  228.032;  215.067;  229.072;10.05510; 0.55637
 662.61;  208.834;  211.067;  210.265;-1.72409;-0.09548
 663.18;  216.848;  225.067;  217.366;-6.28719;-0.34849
 663.76;  196.772;  211.067;  198.114;-10.96309;-0.60818
 664.33;  223.255;  227.067;  224.276;-2.90441;-0.16126
 664.90;  216.694;  248.067;  218.228;-23.83875;-1.32475
 665.47;  213.363;  196.067;  213.334;13.14181; 0.73094
 666.05;  204.019;  201.067;  205.629; 2.22988; 0.12413
 666.62;  240.924;  278.067;  241.144;-28.09434;-1.56527
 667.19;  206.022;  196.067;  207.285; 7.55408; 0.42124
 667.76;  203.990;  193.067;  204.023; 8.28763; 0.46254
 668.33;  203.921;  191.067;  205.400; 9.75549; 0.54492
 668.91;  196.598;  171.067;  197.565;19.50201; 1.09028
 669.48;  209.469;  220.067;  210.380;-8.09003;-0.45267
 670.05;  197.613;  213.067;  198.083;-11.87128;-0.66481
 670.62;  214.081;  241.067;  215.669;-20.70167;-1.16032
 671.19;  213.377;  210.068;  214.139; 2.54163; 0.14258
 671.76;  219.614;  226.068;  220.467;-4.97709;-0.27944
 672.34;  202.414;  201.068;  203.080; 1.04153; 0.05853
 672.91;  209.970;  195.068;  211.445;11.54760; 0.64944
 673.48;  202.052;  189.068;  202.911;10.09789; 0.56839
 674.05;  225.149;  240.068;  226.022;-11.63199;-0.65530
 674.62;  222.675;  210.068;  222.944; 9.77322; 0.55105
 675.19;  213.339;  167.068;  214.620;35.92565; 2.02734
 675.77;  218.690;  204.068;  219.275;11.31806; 0.63924
 676.34;  189.955;  217.068;  191.771;-21.09201;-1.19227
 676.91;  208.178;  217.068;  208.803;-6.91518;-0.39123
 677.48;  210.538;  188.068;  211.508;17.51352; 0.99166
 678.05;  209.887;  202.068;  210.119; 6.06901; 0.34393
 678.62;  218.635;  219.068;  219.811;-0.33546;-0.01903
 679.19;  213.344;  223.068;  213.546;-7.50902;-0.42626
 679.77;  205.148;  213.068;  206.476;-6.13094;-0.34832
 680.34;  174.966;  185.068;  175.547;-7.75945;-0.44121
 680.91;  203.116;  208.068;  204.251;-3.81070;-0.21686
 681.48;  206.628;  218.068;  207.074;-8.79266;-0.50080
 682.05;  211.728;  196.068;  213.317;11.99490; 0.68376
 682.62;  184.628;  151.068;  185.277;25.75941; 1.46963
 683.19;  200.424;  203.068;  201.952;-2.02914;-0.11586
 683.76;  210.431;  223.068;  210.846;-9.68677;-0.55358
 684.33;  212.261;  194.068;  213.590;14.01553; 0.80162
 684.90;  192.298;  181.068;  192.513; 8.65909; 0.49567
 685.48;  193.317;  220.068;  194.596;-20.72383;-1.18729
 686.05;  191.778;  190.068;  192.314; 1.31676; 0.07550
 686.62;  209.632;  200.068;  211.142; 7.39132; 0.42416
 687.19;  191.654;  168.068;  192.189;18.35584; 1.05425
 687.76;  201.219;  219.068;  202.329;-13.78276;-0.79226
 688.33;  205.099;  189.068;  205.405;12.35143; 0.71057
 688.90;  200.943;  194.068;  201.908; 5.33546; 0.30720
 689.47;  164.919;  159.068;  165.542; 4.53701; 0.26144
 690.04;  192.048;  193.068;  193.228;-0.79009;-0.04557
 690.61;  206.555;  174.068;  207.285;25.14003; 1.45108
 691.18;  187.637;  187.068;  188.798; 0.43917; 0.02537
 691.75;  224.300;  234.068;  224.763;-7.53530;-0.43566
 692.32;  204.541;  242.068;  206.133;-29.03151;-1.67985
 692.89;  224.202;  207.068;  225.062;13.15881; 0.76204
 693.46;  207.986;  198.068;  208.951; 7.60843; 0.44097
 694.03;  200.147;  218.068;  200.543;-13.79645;-0.80028
 694.60;  212.281;  224.068;  213.450;-9.06949;-0.52652
 695.17;  209.514;  210.068;  210.028;-0.42565;-0.02473
 695.74;  261.221;  180.068;  263.362;62.22175; 3.61813
 696.31;  437.258;  218.068;  440.101;167.45655; 9.74541
 696.88;  397.336;  220.068;  399.781;135.25323; 7.87773
 697.45;  228.460;  199.068;  229.094;22.43638; 1.30786
 698.02;  181.670;  162.068;  183.049;14.96452; 0.87302
 698.59;  183.236;  185.069;  183.777;-1.39942;-0.08171
 699.16;  187.348;  176.069;  188.334; 8.61549; 0.50344
 699.73;  200.124;  189.069;  200.642; 8.39940; 0.49122
 700.30;  186.850;  168.069;  188.208;14.27880; 0.83574
 700.87;  207.439;  216.069;  207.998;-6.51612;-0.38170
 701.44;  204.577;  239.069;  206.120;-26.04134;-1.52668
 702.01;  200.462;  193.069;  201.006; 5.60585; 0.32891
 702.58;  220.420;  217.069;  222.113; 2.53238; 0.14870
 703.15;  187.595;  205.069;  187.898;-13.14591;-0.77256
 703.72;  206.634;  233.069;  208.018;-19.92226;-1.17174
 704.29;  182.147;  194.069;  182.701;-8.96665;-0.52781
 704.86;  212.524;  217.069;  213.595;-3.41699;-0.20130
 705.43;  205.983;  181.069;  205.760;18.64925; 1.09953
 706.00;  222.553;  201.069;  224.015;16.04918; 0.94700
 706.57;  253.671;  181.069;  254.596;54.31357; 3.20741
 707.14;  227.666;  182.069;  229.232;34.12435; 2.01679
 707.70;  233.006;  213.069;  233.910;14.91329; 0.88210
 708.27;  194.312;  179.069;  195.786;11.38895; 0.67418
 708.84;  193.866;  191.069;  194.556; 2.09122; 0.12389
 709.41;  174.006;  187.069;  175.312;-9.75993;-0.57868
 709.98;  219.940;  238.069;  220.398;-13.51035;-0.80169
 710.55;  194.084;  201.069;  195.263;-5.21175;-0.30951
 711.12;  215.141;  196.069;  215.301;14.18734; 0.84321
 711.69;  209.153;  238.069;  210.504;-21.42773;-1.27456
 712.26;  209.310;  218.069;  210.462;-6.50580;-0.38729
 712.83;  224.773;  236.069;  226.206;-8.33241;-0.49642
 713.39;  210.859;  213.069;  210.996;-1.63912;-0.09773
 713.96;  223.419;  223.069;  224.734; 0.25912; 0.01546
 714.53;  217.740;  216.069;  218.205; 1.23779; 0.07392
 715.10;  213.349;  208.069;  214.511; 3.90821; 0.23358
 715.67;  190.788;  183.069;  191.235; 5.71515; 0.34185
 716.24;  207.196;  213.069;  208.650;-4.34595;-0.26016
 716.81;  226.249;  210.069;  227.069;11.93050; 0.71475
 717.37;  209.467;  209.069;  210.823; 0.29501; 0.01769
 717.94;  216.935;  225.069;  217.174;-6.01111;-0.36069
 718.51;  217.038;  222.069;  218.508;-3.71195;-0.22291
 719.08;  200.878;  201.069;  201.513;-0.14105;-0.00848
 719.65;  224.929;  222.069;  226.171; 2.11245; 0.12706
 720.22;  221.800;  225.069;  222.212;-2.41994;-0.14567
 720.78;  213.217;  235.069;  214.581;-16.11153;-0.97059
 721.35;  201.776;  196.069;  202.044; 4.20541; 0.25354
 721.92;  228.860;  247.069;  230.611;-13.42019;-0.80973
 722.49;  217.550;  216.069;  218.114; 1.09184; 0.06593
 723.06;  212.694;  227.069;  214.094;-10.62541;-0.64211
 723.63;  183.536;  170.069;  184.421; 9.95948; 0.60234
 724.19;  223.764;  221.069;  224.993; 1.98061; 0.11988
 724.76;  203.610;  222.069;  204.163;-13.64531;-0.82656
 725.33;  213.108;  217.069;  214.363;-2.92346;-0.17723
 725.90;  233.455;  206.070;  234.640;20.16644; 1.22348
 726.46;  233.610;  208.070;  234.840;18.88197; 1.14645
 727.03;  300.554;  209.070;  301.629;67.45612; 4.09892
 727.60;  228.773;  176.070;  230.032;38.93893; 2.36794
 728.17;  228.549;  213.070;  229.421;11.45059; 0.69687
 728.74;  223.135;  216.070;  224.458; 5.23946; 0.31912
 729.30;  207.270;  219.070;  207.974;-8.74744;-0.53319
 729.87;  205.645;  195.070;  207.478; 7.82557; 0.47737
 730.44;  231.195;  213.070;  231.996;13.43780; 0.82036
 731.01;  222.027;  249.070;  223.521;-20.08858;-1.22734
 731.57;  205.137;  193.070;  205.458; 8.97402; 0.54870
 732.14;  200.214;  174.070;  202.402;19.51049; 1.19387
 732.71;  206.141;  198.070;  206.947; 6.01239; 0.36819
 733.28;  240.790;  235.070;  242.121; 4.25792; 0.26095
 733.84;  200.669;  203.070;  201.460;-1.78945;-0.10975
 734.41;  198.609;  183.070;  200.092;11.62650; 0.71364
 734.98;  222.569;  234.070;  224.040;-8.56343;-0.52604
 735.54;  237.222;  238.070;  238.482;-0.63043;-0.03876
 736.11;  205.257;  208.070;  205.680;-2.10489;-0.12950
 736.68;  199.475;  212.070;  201.026;-9.43321;-0.58081
 737.25;  219.345;  204.070;  220.059;11.42862; 0.70421
 737.81;  294.803;  210.070;  296.605;63.62688; 3.92356
 738.38;  337.410;  226.070;  338.911;83.70400; 5.16559
 738.95;  285.097;  231.070;  286.653;40.54688; 2.50417
 739.51;  232.133;  241.070;  232.673;-6.76131;-0.41790
 740.08;  220.284;  227.070;  221.488;-5.13824;-0.31782
 740.65;  204.317;  176.070;  204.633;21.40804; 1.32520
 741.21;  216.275;  216.070;  217.655; 0.15527; 0.00962
 741.78;  221.954;  210.070;  222.625; 9.02214; 0.55934
 742.35;  217.317;  227.070;  218.361;-7.41932;-0.46033
 742.91;  234.097;  268.070;  234.772;-25.78503;-1.60103
 743.48;  217.083;  235.070;  218.451;-13.77626;-0.85604
 744.05;  212.664;  223.070;  212.828;-7.97048;-0.49565
 744.61;  217.961;  198.070;  219.102;15.21794; 0.94707
 745.18;  201.777;  206.070;  202.524;-3.29661;-0.20532
 745.75;  214.566;  199.070;  216.518;11.95505; 0.74514
 746.31;  243.927;  272.070;  244.913;-21.67680;-1.35210
 746.88;  212.814;  216.070;  213.863;-2.52257;-0.15747
 747.44;  215.776;  220.070;  216.299;-3.32912;-0.20797
 748.01;  243.914;  252.070;  244.971;-6.32876;-0.39566
 748.58;  227.278;  238.070;  227.434;-8.38619;-0.52468
 749.14;  230.557;  215.070;  232.151;12.07228; 0.75587
 749.71;  406.757;  215.070;  409.007;150.14019; 9.40771
 750.28;  619.800;  231.070;  623.348;303.08761;19.00566
 750.84;  512.753;  223.070;  514.788;227.62082;14.28414
 751.41;  371.698;  210.070;  373.392;127.24673; 7.99127
 751.97;  287.550;  214.070;  288.500;57.72431; 3.62790
 752.54;  224.308;  228.070;  226.021;-2.96693;-0.18661
 753.11;  212.127;  202.071;  212.800; 7.98632; 0.50269
 753.67;  217.884;  224.071;  219.344;-4.92215;-0.31005
 754.24;  210.247;  212.071;  211.136;-1.45136;-0.09149
 754.80;  234.018;  206.071;  235.772;22.47108; 1.41759
 755.37;  195.267;  193.071;  196.112; 1.76037; 0.11114
 755.93;  228.173;  220.071;  228.983; 6.52253; 0.41209
 756.50;  220.374;  241.071;  220.414;-16.63810;-1.05198
 757.07;  223.898;  227.071;  225.081;-2.56696;-0.16242
 757.63;  197.934;  208.071;  198.460;-8.23841;-0.52167
 758.20;  199.691;  177.071;  200.826;18.47845; 1.17096
 758.76;  209.804;  235.071;  210.275;-20.70774;-1.31320
 759.33;  180.793;  195.071;  181.910;-11.77634;-0.74736
 759.89;  209.786;  230.071;  210.229;-16.72812;-1.06241
 760.46;  211.335;  229.071;  212.629;-14.72662;-0.93599
 761.02;  225.966;  215.071;  226.566; 9.04536; 0.57533
 761.59;  208.563;  210.071;  210.232;-1.25739;-0.08004
 762.15;  244.858;  230.071;  245.730;12.39993; 0.78987
 762.72;  481.037;  180.071;  484.627;253.18721;16.13986
 763.28;  896.202;  205.071;  904.819;582.93699;37.18786
 763.85;  711.303;  232.071;  717.082;404.11636;25.79927
 764.41;  318.291;  208.071;  319.422;93.95923; 6.00291
 764.98;  235.480;  210.071;  236.657;21.73197; 1.38945
 765.54;  222.744;  217.071;  223.306; 4.86869; 0.31151
 766.11;  218.487;  211.071;  219.868; 6.38836; 0.40905
 766.67;  192.660;  197.071;  193.451;-3.80925;-0.24409
 767.24;  217.094;  209.071;  218.279; 6.92525; 0.44408
 767.80;  206.297;  168.071;  206.825;33.20068; 2.13054
 768.37;  202.187;  173.071;  203.819;25.46916; 1.63560
 768.93;  203.900;  218.071;  204.604;-12.44815;-0.79999
 769.50;  211.196;  215.071;  212.553;-3.42108;-0.22002
 770.06;  203.829;  173.071;  204.362;27.22452; 1.75218
 770.63;  211.169;  197.071;  212.509;12.55421; 0.80859
 771.19;  226.998;  209.071;  227.713;16.04318; 1.03406
 771.75;  382.942;  186.071;  386.013;176.61601;11.39208
 772.32;  537.436;  190.071;  540.920;314.08112;20.27366
 772.88;  391.185;  231.071;  394.002;144.81959; 9.35481
 773.45;  232.848;  205.071;  233.854;25.26072; 1.63294
 774.01;  210.128;  209.071;  211.401; 0.96747; 0.06259
 774.58;  207.882;  190.071;  208.512;16.38928; 1.06101
 775.14;  224.254;  202.071;  225.345;20.34106; 1.31779
 775.70;  223.159;  258.071;  223.768;-32.37067;-2.09866
 776.27;  214.479;  227.071;  216.023;-11.74879;-0.76225
 776.83;  219.844;  229.071;  220.652;-8.63037;-0.56034
 777.40;  195.297;  218.071;  196.861;-21.35155;-1.38729
 777.96;  199.403;  212.071;  199.912;-11.96074;-0.77769
 778.52;  220.738;  238.071;  222.001;-16.38845;-1.06636
 779.09;  216.970;  234.071;  217.521;-16.38148;-1.06668
 779.65;  216.596;  209.071;  217.891; 7.23656; 0.47155
 780.22;  202.809;  182.072;  203.657;20.01185; 1.30496
 780.78;  229.740;  221.072;  231.066; 8.42569; 0.54983
 781.34;  229.256;  254.072;  229.759;-24.14616;-1.57683
 781.91;  204.912;  230.072;  206.367;-24.59599;-1.60736
 782.47;  247.786;  237.072;  248.251;10.53044; 0.68867
 783.03;  224.967;  218.072;  226.590; 6.81376; 0.44592
 783.60;  206.575;  235.072;  206.842;-28.44677;-1.86303
 784.16;  233.850;  246.072;  235.787;-12.23628;-0.80195
 784.72;  208.838;  194.072;  209.536;14.82634; 0.97240
 785.29;  214.766;  251.072;  216.064;-36.57311;-2.40040
 785.85;  235.765;  234.072;  236.114; 1.71515; 0.11265
 786.41;  220.170;  214.072;  221.143; 6.21318; 0.40838
 786.98;  212.067;  228.072;  212.930;-16.43288;-1.08086
 787.54;  234.287;  210.072;  235.438;24.94026; 1.64160
 788.10;  211.197;  206.072;  211.821; 5.33334; 0.35130
 788.67;  223.435;  224.072;  224.988;-0.66460;-0.04381
 789.23;  214.593;  214.072;  215.031; 0.54565; 0.03599
 789.79;  226.512;  245.072;  228.110;-19.54472;-1.29014
 790.36;  207.746;  214.072;  208.293;-6.69786;-0.44244
 790.92;  218.956;  254.072;  220.370;-37.35993;-2.46963
 791.48;  207.333;  209.072;  207.780;-1.86622;-0.12345
 792.05;  232.134;  212.072;  233.383;21.63156; 1.43196
 792.61;  218.104;  237.072;  219.161;-20.44812;-1.35458
 793.17;  227.308;  230.072;  228.546;-3.01402;-0.19981
 793.73;  247.646;  242.072;  248.665; 6.07453; 0.40298
 794.30;  320.266;  237.072;  322.737;91.35979; 6.06501
 794.86;  357.755;  233.072;  359.718;137.80088; 9.15453
 795.42;  262.378;  193.072;  263.689;77.68148; 5.16427
 795.98;  225.822;  224.072;  225.549; 1.95764; 0.13024
 796.55;  207.908;  206.072;  209.189; 2.06727; 0.13763
 797.11;  226.401;  237.072;  227.249;-12.07222;-0.80426
 797.67;  257.970;  273.072;  259.224;-17.12703;-1.14183
 798.23;  198.225;  225.072;  199.018;-30.81690;-2.05595
 798.80;  231.963;  209.072;  233.469;26.38071; 1.76123
 799.36;  241.757;  238.072;  242.588; 4.25366; 0.28418
 799.92;  290.246;  257.072;  292.194;38.44387; 2.57021
 800.48;  366.035;  209.072;  367.758;183.08867;12.24919
 801.05;  372.489;  237.072;  375.374;159.42777;10.67370
 801.61;  327.165;  213.072;  328.478;134.18199; 8.98979
 802.17;  248.254;  250.072;  249.713;-2.15994;-0.14481
 802.73;  237.083;  243.072;  237.766;-7.13448;-0.47866
 803.29;  200.796;  209.072;  202.163;-9.92732;-0.66650
 803.86;  231.999;  249.072;  232.486;-20.58742;-1.38316
 804.42;  234.797;  239.072;  236.011;-5.19480;-0.34926
 804.98;  250.124;  278.072;  250.790;-34.17334;-2.29914
 805.54;  233.785;  246.072;  235.030;-15.11331;-1.01752
 806.10;  232.509;  227.072;  233.258; 6.68084; 0.45011
 806.66;  264.340;  297.072;  265.863;-40.49810;-2.73037
 807.23;  238.726;  238.073;  239.389; 0.81689; 0.05511
 807.79;  231.548;  254.073;  232.747;-28.44897;-1.92069
 808.35;  242.954;  244.073;  243.629;-1.40695;-0.09505
 808.91;  225.161;  234.073;  226.076;-11.30482;-0.76429
 809.47;  257.119;  229.073;  257.649;35.99868; 2.43547
 810.03;  348.451;  208.073;  351.262;180.67888;12.23220
 810.60;  430.220;  238.073;  432.824;249.16931;16.88078
 811.16;  492.461;  173.073;  497.556;412.35320;27.95555
 811.72;  484.710;  218.073;  487.591;345.25122;23.42256
 812.28;  290.127;  233.073;  292.613;74.25075; 5.04081
 812.84;  253.517;  245.073;  254.431;11.02801; 0.74920
 813.40;  258.175;  250.073;  259.299;10.61497; 0.72164
 813.96;  247.285;  249.073;  248.104;-2.34428;-0.15948
 814.52;  243.123;  218.073;  244.074;33.02664; 2.24834
 815.09;  232.704;  223.073;  233.510;12.66337; 0.86267
 815.65;  245.270;  221.073;  246.571;32.11322; 2.18917
 816.21;  238.406;  246.073;  239.278;-10.13964;-0.69170
 816.77;  240.804;  237.073;  241.940; 4.92824; 0.33642
 817.33;  238.370;  262.073;  238.789;-31.57693;-2.15705
 817.89;  234.309;  218.073;  235.760;21.75145; 1.48688
 818.45;  268.368;  261.073;  269.189; 9.81857; 0.67164
 819.01;  244.520;  238.073;  245.181; 8.70114; 0.59561
 819.57;  240.944;  213.073;  241.436;38.08822; 2.60899
 820.13;  237.785;  260.073;  239.229;-30.51707;-2.09180
 820.69;  258.633;  264.073;  259.224;-7.45804;-0.51156
 821.25;  234.995;  249.073;  236.529;-19.48610;-1.33751
 821.82;  227.499;  218.073;  228.286;13.18688; 0.90575
 822.38;  245.995;  229.073;  247.358;23.68495; 1.62793
 822.94;  247.664;  281.073;  248.253;-46.92984;-3.22782
 823.50;  243.008;  281.073;  244.492;-53.88709;-3.70886
 824.06;  245.924;  259.073;  246.571;-18.74813;-1.29125
 824.62;  236.719;  222.073;  238.305;21.05027; 1.45079
 825.18;  287.142;  273.073;  287.441;20.26198; 1.39741
 825.74;  359.193;  249.073;  361.056;159.50701;11.00818
 826.30;  455.444;  249.073;  457.405;300.85721;20.77738
 826.86;  357.037;  230.073;  358.300;185.90542;12.84745
 827.42;  274.734;  256.073;  275.466;27.45650; 1.89873
 827.98;  254.777;  237.073;  256.180;26.12606; 1.80795
 828.54;  239.964;  245.073;  240.711;-7.58452;-0.52521
 829.10;  230.165;  235.073;  231.523;-7.33899;-0.50855
 829.66;  252.227;  246.073;  252.830; 9.22139; 0.63942
 830.22;  234.990;  205.073;  235.938;45.14280; 3.13238
 830.78;  221.191;  237.073;  221.819;-24.14318;-1.67638
 831.34;  236.185;  205.073;  237.472;47.34373; 3.28953
 831.90;  248.671;  250.073;  249.087;-2.15535;-0.14986
 832.46;  234.672;  212.073;  236.797;34.88999; 2.42748
 833.02;  209.000;  219.073;  209.495;-15.57725;-1.08452
 833.58;  242.651;  273.073;  243.690;-47.08993;-3.28071
 834.14;  233.285;  227.074;  233.696; 9.67252; 0.67433
 834.70;  241.478;  228.074;  242.969;20.88075; 1.45669
 835.25;  212.202;  193.074;  212.537;29.92363; 2.08895
 835.81;  220.439;  234.074;  222.364;-21.53410;-1.50429
 836.37;  232.943;  255.074;  233.459;-35.25818;-2.46464
 836.93;  244.012;  250.074;  245.528;-9.65071;-0.67506
 837.49;  239.768;  253.074;  240.231;-21.16008;-1.48113
 838.05;  214.085;  255.074;  215.568;-65.63489;-4.59726
 838.61;  227.320;  258.074;  228.345;-49.39755;-3.46226
 839.17;  224.895;  262.074;  226.276;-60.11674;-4.21638
 839.73;  257.509;  244.074;  258.319;21.80921; 1.53064
 840.29;  331.490;  245.074;  333.548;140.94055; 9.89824
 840.85;  326.474;  222.074;  327.660;170.25429;11.96490
 841.41;  304.463;  222.074;  306.286;135.07016; 9.49859
 841.97;  364.312;  234.074;  365.696;214.55376;15.09816
 842.52;  368.233;  217.074;  370.545;249.35644;17.55888
 843.08;  266.636;  227.074;  267.732;65.65361; 4.62618
 843.64;  228.757;  222.074;  229.900;11.11585; 0.78378
 844.20;  234.006;  222.074;  234.759;20.04788; 1.41452
 844.76;  241.434;  236.074;  242.579; 9.02754; 0.63738
 845.32;  198.572;  191.074;  198.961;12.65817; 0.89430
 845.88;  225.984;  238.074;  227.892;-20.44175;-1.44517
 846.44;  237.267;  258.074;  237.958;-35.41032;-2.50506
 846.99;  246.252;  262.074;  247.684;-26.94910;-1.90774
 847.55;  226.960;  261.074;  227.479;-58.18020;-4.12131
 848.11;  197.008;  200.074;  199.205;-5.27424;-0.37386
 848.67;  226.147;  234.074;  227.076;-13.64116;-0.96757
 849.23;  201.001;  202.074;  202.867;-1.85251;-0.13149
 849.79;  223.055;  222.074;  223.775; 1.70469; 0.12107
 850.34;  230.412;  233.074;  231.717;-4.62357;-0.32860
 850.90;  209.702;  213.074;  210.174;-5.87727;-0.41797
 851.46;  279.563;  226.074;  280.813;93.25514; 6.63638
 852.02;  301.001;  250.074;  302.208;88.64352; 6.31233
 852.58;  227.885;  194.074;  229.482;59.89420; 4.26788
 853.13;  225.768;  209.074;  226.250;29.53727; 2.10611
 853.69;  221.160;  235.074;  222.824;-24.68817;-1.76151
 854.25;  256.859;  270.074;  257.616;-23.45195;-1.67440
 854.81;  216.550;  206.074;  217.697;18.73359; 1.33839
 855.37;  219.756;  220.074;  220.333;-0.56793;-0.04060
 855.92;  240.246;  241.074;  241.309;-1.48765;-0.10642
 856.48;  220.068;  234.074;  220.764;-25.18559;-1.80287
 857.04;  239.327;  254.074;  240.575;-26.57494;-1.90356
 857.60;  237.953;  244.074;  238.221;-11.03177;-0.79072
 858.16;  232.708;  225.074;  234.200;13.85677; 0.99385
 858.71;  244.376;  239.074;  244.791; 9.65100; 0.69265
 859.27;  225.351;  228.074;  226.620;-4.97990;-0.35764
 859.83;  226.355;  210.074;  226.823;29.89103; 2.14806
 860.39;  222.640;  215.074;  224.121;13.90851; 1.00015
 860.94;  223.657;  181.075;  224.748;78.41875; 5.64271
 861.50;  216.797;  246.075;  217.997;-54.05588;-3.89217
 862.06;  231.838;  259.075;  232.546;-50.43668;-3.63393
 862.61;  229.685;  210.075;  230.805;36.42824; 2.62633
 863.17;  202.163;  190.075;  202.723;22.49173; 1.62261
 863.73;  237.118;  233.075;  238.581; 7.55895; 0.54567
 864.29;  227.271;  230.075;  228.253;-5.23747;-0.37833
 864.84;  233.646;  250.075;  235.379;-30.83818;-2.22905
 865.40;  235.063;  238.075;  235.780;-5.65333;-0.40890
 865.96;  222.877;  212.075;  224.416;20.44757; 1.47990
 866.51;  234.435;  233.075;  235.455; 2.58157; 0.18696
 867.07;  240.678;  222.075;  242.350;35.22104; 2.55241
 867.63;  251.385;  270.075;  251.922;-35.63320;-2.58394
 868.18;  244.474;  238.075;  245.624;12.17839; 0.88368
 868.74;  245.841;  277.075;  246.961;-59.51832;-4.32151
 869.30;  228.799;  255.075;  230.235;-50.47577;-3.66729
 869.86;  217.241;  200.075;  218.265;32.99007; 2.39841
 870.41;  253.029;  246.075;  253.958;13.33593; 0.97016
 870.97;  226.766;  256.075;  227.264;-56.64883;-4.12370
 871.52;  227.138;  241.075;  228.567;-27.15608;-1.97807
 872.08;  249.714;  214.075;  250.722;68.92130; 5.02348
 872.64;  232.873;  237.075;  234.442;-8.17851;-0.59649
 873.19;  211.318;  216.075;  211.657;-9.23465;-0.67395
 873.75;  223.779;  237.075;  224.592;-26.04941;-1.90230
 874.31;  219.397;  237.075;  220.056;-34.48804;-2.52015
 874.86;  240.746;  270.075;  241.915;-56.91547;-4.16164
 875.42;  252.840;  245.075;  253.322;15.06529; 1.10227
 875.98;  232.028;  235.075;  233.113;-5.91446;-0.43301
 876.53;  235.169;  245.075;  234.819;-19.20668;-1.40706
 877.09;  252.427;  249.075;  253.951; 6.46709; 0.47407
 877.64;  236.147;  254.075;  236.529;-34.67560;-2.54353
 878.20;  231.499;  239.075;  232.907;-14.62082;-1.07315
 878.76;  245.760;  246.075;  246.343;-0.60542;-0.04446
 879.31;  206.019;  193.075;  207.275;24.81720; 1.82385
 879.87;  240.142;  251.075;  240.780;-21.00384;-1.54458
 880.42;  232.646;  230.075;  234.107; 4.89986; 0.36055
 880.98;  221.717;  210.075;  221.988;22.14169; 1.63031
 881.54;  254.099;  256.075;  255.548;-3.74725;-0.27609
 882.09;  233.709;  235.075;  234.437;-2.58813;-0.19081
 882.65;  248.088;  258.075;  249.402;-18.79928;-1.38683
 883.20;  242.984;  246.075;  243.568;-5.82485;-0.42997
 883.76;  244.290;  252.075;  245.358;-14.61820;-1.07974
 884.31;  240.338;  249.075;  241.009;-16.44743;-1.21562
 884.87;  266.962;  224.075;  268.712;80.83728; 5.97839
 885.42;  231.749;  224.075;  232.324;14.45959; 1.07004
 885.98;  217.650;  238.075;  218.974;-38.66792;-2.86331
 886.53;  239.477;  233.075;  240.171;12.13108; 0.89885
 887.09;  248.880;  311.075;  250.041;-118.59613;-8.79290
 887.65;  241.719;  261.075;  242.631;-36.73262;-2.72512
 888.20;  235.005;  235.075;  236.451;-0.13420;-0.00996
 888.76;  232.446;  230.075;  232.933; 4.57524; 0.33985
 889.31;  242.520;  265.075;  244.079;-43.66967;-3.24584
 889.87;  243.437;  236.075;  244.165;14.41613; 1.07218
 890.42;  233.741;  247.075;  234.992;-26.27103;-1.95509
 890.98;  240.713;  286.075;  241.387;-90.13041;-6.71167
 891.53;  214.082;  206.075;  215.649;16.00388; 1.19249
 892.09;  250.315;  241.075;  250.758;18.50408; 1.37965
 892.64;  232.055;  221.075;  233.499;22.16343; 1.65351
 893.19;  236.778;  230.075;  237.524;13.59242; 1.01470
 893.75;  221.113;  234.075;  222.592;-26.52473;-1.98135
 894.30;  252.227;  272.075;  253.056;-40.82421;-3.05138
 894.86;  220.149;  213.075;  221.596;14.63179; 1.09432
 895.41;  258.969;  267.075;  259.505;-16.84593;-1.26070
 895.97;  220.425;  198.075;  222.024;47.06719; 3.52456
 896.52;  258.695;  286.075;  259.433;-57.54671;-4.31197
 897.08;  241.154;  231.075;  242.592;21.29982; 1.59698
 897.63;  257.856;  261.075;  258.403;-6.84345;-0.51341
 898.19;  237.022;  266.075;  238.741;-61.95324;-4.65076
 898.74;  258.658;  260.075;  259.055;-3.04596;-0.22880
 899.29;  255.946;  234.075;  257.459;47.33622; 3.55786
 899.85;  234.319;  214.075;  234.908;43.75624; 3.29081
 900.40;  239.472;  215.075;  240.737;53.19871; 4.00342
 900.96;  241.391;  256.075;  242.504;-32.17740;-2.42297
 901.51;  237.409;  257.075;  238.582;-43.48389;-3.27637
 902.06;  241.288;  226.075;  241.858;33.47051; 2.52344
 902.62;  251.967;  244.075;  253.773;17.44020; 1.31568
 903.17;  248.180;  274.075;  248.685;-57.21472;-4.31889
 903.73;  248.907;  235.075;  250.358;30.64924; 2.31500
 904.28;  232.034;  259.075;  232.970;-60.35730;-4.56170
 904.83;  262.897;  226.075;  264.544;82.58102; 6.24515
 905.39;  219.140;  213.075;  219.915;13.66285; 1.03388
 905.94;  244.734;  222.075;  245.869;51.06160; 3.86624
 906.50;  255.284;  256.075;  255.605;-1.79764;-0.13620
 907.05;  233.780;  230.075;  234.856; 8.42508; 0.63870
 907.60;  253.023;  244.075;  253.492;20.39970; 1.54744
 908.16;  241.329;  251.075;  242.704;-22.31181;-1.69351
 908.71;  245.350;  234.075;  246.128;25.83624; 1.96222
 909.26;  248.868;  265.075;  250.067;-37.39911;-2.84213
 909.82;  242.583;  238.075;  243.055;10.36564; 0.78821
 910.37;  247.955;  233.075;  249.805;34.55631; 2.62929
 910.92;  282.327;  274.075;  282.798;19.25725; 1.46612
 911.48;  414.259;  254.075;  417.556;373.79477;28.47556
 912.03;  494.766;  209.075;  498.296;668.70949;50.97298
 912.58;  406.324;  230.075;  409.322;417.28543;31.82724
 913.14;  293.281;  263.075;  294.353;71.33275; 5.44400
 913.69;  277.861;  258.075;  279.206;46.66351; 3.56344
 914.24;  235.162;  272.075;  236.791;-87.22864;-6.66521
 914.79;  231.918;  221.075;  233.204;25.71293; 1.96593
 915.35;  248.789;  238.075;  249.557;25.53940; 1.95385
 915.90;  253.374;  252.075;  254.492; 3.09145; 0.23665
 916.45;  234.172;  234.075;  234.809; 0.23365; 0.01790
 917.01;  247.866;  245.075;  248.566; 6.73253; 0.51599
 917.56;  242.802;  255.075;  243.381;-29.79607;-2.28500
 918.11;  239.627;  248.075;  241.120;-20.50989;-1.57381
 918.66;  237.016;  207.075;  238.038;72.83697; 5.59245
 919.22;  249.766;  250.075;  251.839;-0.75371;-0.05790
 919.77;  236.262;  231.075;  237.308;12.66357; 0.97348
 920.32;  238.883;  258.075;  240.087;-47.24182;-3.63379
 920.87;  247.666;  217.075;  248.443;75.07734; 5.77834
 921.43;  257.330;  248.075;  257.774;22.94630; 1.76712
 921.98;  272.865;  220.075;  274.027;131.78637;10.15512
 922.53;  269.148;  222.075;  271.230;116.64310; 8.99360
 923.08;  255.434;  262.075;  256.248;-16.54300;-1.27629
 923.64;  245.385;  233.075;  246.640;30.88147; 2.38392
 924.19;  245.006;  253.075;  245.578;-20.30453;-1.56836
 924.74;  225.876;  217.075;  227.339;22.24719; 1.71944
 925.29;  276.719;  280.075;  277.403;-8.51504;-0.65851
 925.84;  249.061;  226.075;  250.418;58.29514; 4.51091
 926.40;  229.497;  255.075;  230.558;-64.94250;-5.02828
 926.95;  228.375;  223.075;  230.070;13.52530; 1.04784
 927.50;  231.700;  249.075;  232.286;-44.63425;-3.46000
 928.05;  242.080;  229.075;  243.188;33.55405; 2.60262
 928.60;  227.414;  226.075;  227.996; 3.45684; 0.26829
 929.15;  243.219;  246.075;  244.566;-7.41603;-0.57591
 929.71;  256.338;  258.075;  257.152;-4.53490;-0.35238
 930.26;  234.564;  203.075;  236.483;82.91423; 6.44653
 930.81;  242.479;  247.075;  243.173;-12.11309;-0.94234
 931.36;  250.392;  248.075;  251.829; 6.10930; 0.47556
 931.91;  257.420;  242.075;  258.185;40.74202; 3.17330
 932.46;  252.469;  248.075;  254.427;11.71173; 0.91274
 933.02;  240.697;  246.075;  241.447;-14.37043;-1.12060
 933.57;  226.405;  202.075;  227.857;65.50380; 5.11100
 934.12;  228.264;  259.075;  228.678;-83.08231;-6.48641
 934.67;  246.359;  226.075;  247.849;55.31824; 4.32136
 935.22;  239.113;  223.075;  239.843;43.37803; 3.39061
 935.77;  261.834;  260.075;  263.560; 4.79762; 0.37522
 936.32;  248.336;  274.075;  248.934;-70.35451;-5.50568
 936.87;  250.442;  254.075;  251.872;-9.98921;-0.78218
 937.42;  245.636;  252.075;  246.185;-17.76998;-1.39225
 937.98;  226.558;  226.075;  227.583; 1.35154; 0.10595
 938.53;  237.937;  259.075;  239.005;-58.99921;-4.62793
 939.08;  227.753;  222.075;  228.979;15.83314; 1.24269
 939.63;  250.431;  258.075;  251.205;-21.46416;-1.68564
 940.18;  257.896;  295.075;  259.810;-104.66961;-8.22480
 940.73;  240.529;  240.075;  241.304; 1.29075; 0.10148
 941.28;  224.665;  242.075;  225.946;-49.54403;-3.89766
 941.83;  233.806;  230.075;  234.167;10.67773; 0.84052
 942.38;  227.796;  236.075;  229.162;-23.75829;-1.87127
 942.93;  244.661;  232.075;  245.600;36.24137; 2.85614
 943.48;  240.771;  243.075;  241.917;-6.67439;-0.52631
 944.03;  226.849;  236.075;  227.541;-26.99090;-2.12960
 944.58;  231.717;  254.075;  233.064;-65.27833;-5.15351
 945.13;  228.743;  215.075;  229.815;40.47480; 3.19722
 945.68;  221.624;  213.075;  222.208;25.31502; 2.00087
 946.23;  229.756;  242.075;  230.613;-36.53111;-2.88905
 946.79;  229.446;  229.075;  231.005; 1.10715; 0.08761
 947.34;  249.014;  212.075;  249.695;110.02409; 8.71135
 947.89;  253.381;  270.075;  254.959;-50.13287;-3.97166
 948.44;  234.337;  253.075;  235.094;-56.46966;-4.47628
 948.99;  231.819;  240.075;  232.976;-24.93906;-1.97803
 949.54;  247.261;  265.075;  247.815;-54.49701;-4.32492
 950.09;  230.387;  229.075;  231.862; 4.02301; 0.31945
 950.64;  229.669;  208.075;  230.175;66.78900; 5.30656
 951.19;  210.605;  219.075;  212.079;-26.27003;-2.08843
 951.73;  203.203;  213.075;  203.920;-30.96452;-2.46306
 952.28;  244.981;  249.075;  246.343;-12.80050;-1.01880
 952.83;  239.076;  263.075;  239.615;-75.17592;-5.98673
 953.38;  257.087;  277.075;  258.216;-62.96800;-5.01743
 953.93;  232.966;  252.075;  233.756;-60.43448;-4.81833
 954.48;  234.520;  269.075;  235.252;-109.71292;-8.75225
 955.03;  238.721;  247.075;  239.630;-26.73008;-2.13360
 955.58;  234.799;  244.075;  235.937;-29.90442;-2.38835
 956.13;  207.797;  201.075;  208.432;21.71501; 1.73529
 956.68;  219.832;  235.075;  221.447;-49.78337;-3.98057
 957.23;  207.601;  209.075;  208.319;-4.83104;-0.38650
 957.78;  218.717;  256.075;  220.490;-122.94759;-9.84191
 958.33;  200.149;  205.075;  200.820;-16.37652;-1.31169
 958.88;  227.989;  207.075;  229.774;69.68838; 5.58493
 959.43;  235.792;  248.075;  236.505;-41.20717;-3.30429
 959.98;  221.029;  217.075;  222.095;13.27083; 1.06476
 960.53;  250.624;  281.075;  251.760;-103.52745;-8.31109
 961.07;  220.794;  221.075;  222.095;-0.95721;-0.07689
 961.62;  265.801;  286.075;  266.468;-69.32287;-5.57154
 962.17;  229.269;  253.075;  230.541;-82.54535;-6.63803
 962.72;  233.204;  209.075;  233.526;84.13748; 6.76992
 963.27;  233.432;  247.075;  235.086;-47.39472;-3.81568
 963.82;  220.755;  241.075;  221.158;-71.40901;-5.75231
 964.37;  250.267;  260.075;  251.846;-34.72345;-2.79872
 964.92;  264.544;  221.075;  265.268;154.17290;12.43344
 965.46;  268.355;  221.075;  270.087;169.14569;13.64869
 966.01;  260.884;  240.075;  261.362;74.53171; 6.01752
 966.56;  247.401;  215.075;  248.617;116.83781; 9.43858
 967.11;  243.178;  219.075;  243.633;87.66481; 7.08590
 967.66;  227.049;  229.075;  228.075;-7.44727;-0.60230
 968.21;  223.235;  209.075;  223.581;52.57539; 4.25446
 968.75;  238.917;  245.075;  240.332;-22.78380;-1.84473
 969.30;  232.398;  256.075;  233.210;-88.77699;-7.19207
 969.85;  248.565;  256.075;  250.345;-28.17881;-2.28413
 970.40;  237.458;  251.075;  237.947;-51.61817;-4.18646
 970.95;  240.885;  219.075;  242.332;82.91277; 6.72839
 971.50;  240.233;  213.075;  240.565;104.28347; 8.46740
 972.04;  239.428;  245.075;  240.898;-21.74680;-1.76675
 972.59;  250.567;  259.075;  250.833;-33.17034;-2.69634
 973.14;  242.304;  232.075;  243.308;40.07447; 3.25939
 973.69;  251.884;  266.075;  252.698;-55.86504;-4.54625
 974.24;  235.352;  249.075;  236.635;-54.25792;-4.41795
 974.78;  231.935;  233.075;  232.698;-4.55868;-0.37140
 975.33;  260.386;  256.075;  262.123;17.30862; 1.41094
 975.88;  246.233;  249.075;  247.067;-11.53923;-0.94117
 976.43;  241.945;  268.075;  243.146;-107.17240;-8.74613
 976.97;  237.257;  239.075;  238.105;-7.44248;-0.60771
 977.52;  227.723;  221.075;  228.570;27.52511; 2.24879
 978.07;  276.836;  281.075;  277.527;-17.61018;-1.43955
 978.62;  264.904;  271.075;  266.470;-25.75487;-2.10652
 979.16;  261.980;  279.075;  262.646;-72.31536;-5.91806
 979.71;  226.526;  244.075;  227.854;-74.37112;-6.08970
 980.26;  248.737;  219.075;  249.504;127.36117;10.43449
 980.81;  245.862;  243.075;  246.767;11.96260; 0.98062
 981.35;  269.818;  256.075;  270.181;59.62460; 4.89040
 981.90;  257.136;  248.075;  258.503;39.84994; 3.27031
 982.45;  256.856;  243.075;  257.604;60.85916; 4.99722
 982.99;  257.468;  254.075;  258.689;15.09889; 1.24048
 983.54;  255.686;  276.075;  256.480;-91.54298;-7.52508
 984.09;  246.523;  263.075;  247.993;-74.67111;-6.14158
 984.63;  244.183;  281.075;  244.842;-168.06938;-13.83112
 985.18;  257.815;  272.075;  259.241;-65.12587;-5.36245
 985.73;  251.673;  258.075;  252.323;-29.59630;-2.43831
 986.27;  240.573;  251.075;  241.887;-48.68838;-4.01344
 986.82;  249.016;  264.075;  249.645;-70.44210;-5.80985
 987.37;  263.330;  267.075;  264.788;-17.69817;-1.46050
 987.91;  254.081;  273.075;  254.562;-90.34050;-7.45926
 988.46;  262.693;  256.075;  263.778;31.70817; 2.61954
 989.01;  255.070;  242.075;  255.884;62.70487; 5.18316
 989.55;  255.950;  241.075;  257.262;72.72678; 6.01489
 990.10;  265.305;  252.075;  265.513;64.95296; 5.37492
 990.65;  278.090;  285.075;  279.084;-34.73553;-2.87599
 991.19;  252.565;  275.075;  253.464;-112.54597;-9.32357
 991.74;  269.392;  260.075;  270.452;46.53138; 3.85689
 992.29;  258.773;  245.075;  259.079;69.28439; 5.74601
 992.83;  268.728;  269.075;  269.852;-1.77694;-0.14745
 993.38;  264.604;  257.075;  265.080;38.43109; 3.19074
 993.92;  241.830;  258.075;  243.246;-84.51912;-7.02105
 994.47;  233.156;  229.075;  233.824;21.39617; 1.77837
 995.02;  252.564;  255.075;  253.541;-13.23062;-1.10028
 995.56;  272.267;  253.075;  273.992;102.37166; 8.51809
 996.11;  260.338;  273.075;  261.846;-68.20710;-5.67845
 996.65;  262.469;  274.075;  263.810;-62.80613;-5.23167
 997.20;  256.579;  265.075;  258.109;-46.64283;-3.88741
 997.75;  255.240;  248.075;  256.184;39.63094; 3.30482
 998.29;  231.664;  231.075;  232.697; 3.29138; 0.27462
 998.84;  260.611;  257.075;  261.339;19.94962; 1.66542
 999.38;  261.244;  236.075;  262.533;142.83087;11.93020
 999.93;  278.406;  287.075;  278.755;-49.71370;-4.15469
1000.47;  275.917;  261.075;  277.285;85.54763; 7.15332
1001.02;  269.223;  236.075;  269.583;194.60930;16.28170
1001.56;  255.110;  241.075;  257.497;82.56297; 6.91127
1002.11;  246.343;  225.075;  246.868;127.22016;10.65528
1002.65;  237.791;  246.075;  238.703;-49.72293;-4.16679
1003.20;  248.510;  235.075;  248.743;81.47048; 6.83096
1003.75;  281.890;  309.075;  282.971;-167.02408;-14.01188
1004.29;  250.121;  265.075;  250.789;-92.18308;-7.73757
1004.84;  235.713;  235.075;  237.252; 3.96294; 0.33282
1005.38;  239.310;  256.075;  239.916;-105.86688;-8.89579
1005.93;  256.253;  234.075;  257.750;140.53627;11.81539
1006.47;  236.989;  229.075;  237.564;51.13060; 4.30106
1007.02;  243.000;  267.075;  244.342;-156.89005;-13.20460
1007.56;  260.307;  254.075;  260.935;40.82957; 3.43827
1008.11;  264.648;  261.075;  266.076;23.54477; 1.98378
1008.65;  224.072;  248.075;  224.809;-160.76694;-13.55286
1009.19;  250.992;  269.075;  252.320;-122.15393;-10.30330
1009.74;  246.956;  244.075;  247.802;19.75614; 1.66727
1010.28;  248.305;  232.075;  250.034;112.07078; 9.46302
1010.83;  258.104;  281.075;  259.005;-161.07126;-13.60784
1011.37;  250.950;  241.075;  252.199;69.91892; 5.91017
1011.92;  251.232;  249.075;  251.875;15.36605; 1.29957
1012.46;  246.449;  253.075;  247.633;-47.60592;-4.02841
1013.01;  302.173;  281.075;  302.802;153.73494;13.01603
1013.55;  281.054;  255.075;  282.144;188.41359;15.96068
1014.09;  265.575;  237.075;  266.280;210.14120;17.81080
1014.64;  251.072;  255.075;  252.749;-30.01936;-2.54570
1015.18;  243.095;  247.075;  243.697;-29.81750;-2.52994
1015.73;  235.485;  229.075;  236.401;49.03990; 4.16313
1016.27;  257.754;  290.075;  258.436;-248.37872;-21.09686
1016.82;  248.593;  269.075;  250.058;-157.20645;-13.35999
1017.36;  241.961;  232.075;  242.270;77.22811; 6.56664
1017.90;  230.206;  206.075;  231.062;188.99677;16.07884
1018.45;  226.117;  227.075;  226.550;-7.59129;-0.64617
1018.99;  227.414;  210.075;  229.060;139.35600;11.86833
1019.53;  216.871;  213.075;  217.755;30.86405; 2.62996
1020.08;  242.365;  233.075;  243.779;76.26652; 6.50221
1020.62;  244.673;  226.075;  245.518;155.64473;13.27679
1021.17;  245.585;  230.075;  247.577;132.22764;11.28528
1021.71;  249.203;  244.075;  250.034;44.51638; 3.80138
1022.25;  254.870;  249.075;  256.391;50.98929; 4.35643
1022.80;  230.337;  245.075;  231.322;-132.02970;-11.28637
1023.34;  227.073;  220.075;  228.160;63.35577; 5.41876
1023.88;  241.667;  236.075;  242.720;51.63518; 4.41865
1024.43;  244.206;  245.075;  245.046;-8.06975;-0.69093
1024.97;  248.583;  249.075;  249.241;-4.63512;-0.39707
1025.51;  227.333;  227.075;  229.064; 2.45989; 0.21084
1026.06;  244.459;  253.075;  245.076;-83.24543;-7.13880
1026.60;  248.175;  247.075;  249.435;10.78202; 0.92511
1027.14;  260.883;  265.075;  261.754;-41.65791;-3.57620
1027.69;  247.743;  245.075;  248.789;27.27751; 2.34293
1028.23;  244.721;  228.075;  245.599;170.54784;14.65647
1028.77;  227.712;  235.075;  228.993;-75.61763;-6.50183
1029.31;  240.389;  228.075;  240.778;129.36915;11.12941
1029.86;  232.307;  209.075;  233.389;245.29612;21.11355
1030.40;  278.291;  271.075;  278.813;77.80179; 6.70022
1030.94;  247.027;  255.075;  248.290;-87.92086;-7.57565
1031.48;  256.720;  254.075;  257.590;29.05780; 2.50507
1032.03;  244.224;  251.075;  245.562;-76.75353;-6.62039
1032.57;  245.562;  233.075;  245.887;140.80338;12.15140
1033.11;  240.584;  266.075;  241.946;-291.68328;-25.18564
1033.65;  230.976;  248.075;  231.608;-200.21948;-17.29720
1034.20;  249.878;  246.075;  251.391;44.73439; 3.86668
1034.74;  248.932;  250.075;  249.558;-13.67457;-1.18260
1035.28;  246.506;  261.075;  247.887;-178.15559;-15.41530
1035.82;  225.874;  236.075;  227.490;-124.94361;-10.81668
1036.37;  236.776;  233.075;  238.137;46.21311; 4.00288
1036.91;  265.135;  260.075;  265.781;63.85507; 5.53388
1037.45;  252.178;  242.075;  253.568;130.54585;11.31943
1037.99;  243.421;  237.075;  244.536;82.71246; 7.17562
1038.53;  244.252;  263.075;  245.679;-249.14115;-21.62521
1039.08;  232.563;  247.075;  233.214;-194.58066;-16.89823
1039.62;  231.025;  241.075;  232.256;-137.15637;-11.91747
1040.16;  237.149;  262.075;  237.569;-340.09485;-29.56612
1040.70;  243.124;  247.075;  244.505;-55.82278;-4.85548
1041.24;  259.270;  252.075;  259.682;103.65908; 9.02098
1041.79;  232.172;  240.075;  233.468;-113.49297;-9.88192
1042.33;  239.927;  257.075;  240.471;-251.00801;-21.86682
1042.87;  232.516;  238.075;  233.549;-82.63893;-7.20292
1043.41;  238.548;  230.075;  238.985;129.29607;11.27547
1043.95;  251.151;  237.075;  252.268;215.55461;18.80753
1044.49;  219.609;  219.075;  220.518; 8.33121; 0.72729
1045.04;  248.644;  273.075;  250.221;-386.06693;-33.71999
1045.58;  241.252;  250.075;  241.830;-141.20820;-12.33984
1046.12;  270.487;  262.075;  271.849;135.87052;11.87954
1046.66;  254.057;  257.075;  254.885;-49.81530;-4.35775
1047.20;  234.142;  236.075;  235.320;-32.27635;-2.82493
1047.74;  269.181;  223.075;  269.595;780.59139;68.35524
1048.28;  249.540;  270.075;  251.215;-350.33301;-30.69399
1048.82;  266.061;  276.075;  266.556;-175.67636;-15.39961
1049.36;  268.177;  267.075;  269.315;19.47474; 1.70802
1049.91;  256.178;  261.075;  257.742;-87.84851;-7.70865
1050.45;  247.857;  238.075;  249.309;179.32732;15.74397
1050.99;  269.170;  276.075;  270.051;-128.39826;-11.27848
1051.53;  272.780;  253.075;  274.352;372.62963;32.74856
1052.07;  247.673;  272.075;  248.606;-465.28471;-40.91258
1052.61;  247.934;  261.075;  249.157;-255.40803;-22.46963
1053.15;  258.279;  280.075;  259.428;-427.50329;-37.62909
1053.69;  250.538;  243.075;  251.300;147.97803;13.03180
1054.23;  256.973;  275.075;  258.219;-370.47952;-32.64331
1054.77;  271.152;  275.075;  272.751;-81.39574;-7.17553
1055.31;  256.119;  239.075;  256.713;358.42165;31.61326
1055.85;  247.567;  233.075;  248.855;306.92465;27.08502
1056.39;  248.612;  236.075;  248.859;270.19609;23.85605
1056.93;  255.229;  270.075;  256.144;-327.11287;-28.89610
1057.47;  267.535;  282.075;  267.844;-320.28909;-28.30777
1058.01;  263.347;  272.075;  264.903;-197.43922;-17.45898
1058.55;  263.437;  253.075;  264.264;241.13921;21.33413
1059.09;  260.695;  251.075;  261.937;227.17859;20.10926
1059.63;  268.578;  284.075;  269.195;-372.94670;-33.02910
1060.17;  281.368;  294.075;  282.384;-307.96777;-27.28830
1060.71;  247.754;  245.075;  248.087;65.37440; 5.79562
1061.25;  258.325;  253.075;  259.538;130.39311;11.56560
1061.79;  260.147;  262.075;  260.867;-49.25089;-4.37067
1062.33;  251.988;  251.075;  253.076;23.69620; 2.10394
1062.87;  284.661;  278.075;  285.207;172.92633;15.36161
1063.41;  261.816;  257.075;  263.348;128.95592;11.46139
1063.95;  269.925;  271.075;  270.279;-31.25588;-2.77938
1064.49;  251.131;  256.075;  252.270;-136.00270;-12.09997
1065.03;  307.319;  328.075;  307.733;-578.71213;-51.51329
1065.57;  281.304;  306.075;  283.047;-717.36406;-63.88755
1066.11;  261.497;  255.075;  262.131;190.03705;16.93303
1066.65;  258.682;  238.075;  260.043;606.39764;54.05970
1067.19;  275.047;  277.075;  275.876;-60.64236;-5.40893
1067.73;  282.067;  291.075;  283.350;-273.78048;-24.43192
1068.27;  253.749;  266.075;  254.223;-377.61525;-33.71506
1068.81;  257.934;  280.075;  259.483;-695.84408;-62.15920
1069.35;  283.926;  302.075;  284.767;-565.43085;-50.53497
1069.89;  249.843;  233.075;  251.184;528.26059;47.23671
1070.43;  276.172;  302.075;  276.645;-847.84371;-75.85182
1070.96;  271.008;  256.075;  272.407;487.24965;43.61344
1071.50;  269.990;  281.075;  270.816;-366.65996;-32.83604
1072.04;  265.869;  270.075;  266.872;-138.22727;-12.38510
1072.58;  270.849;  283.075;  271.651;-412.07566;-36.94034
1073.12;  281.738;  288.075;  282.998;-220.42829;-19.77012
1073.66;  254.566;  229.075;  254.951;887.15887;79.60886
1074.20;  263.063;  263.075;  264.014;-0.43374;-0.03894
1074.74;  268.850;  274.075;  269.329;-186.87014;-16.78555
1075.27;  257.107;  250.075;  258.285;249.63281;22.43442
1075.81;  260.346;  237.075;  260.575;848.10775;76.25734
1076.35;  265.383;  267.075;  266.626;-62.89920;-5.65839
1076.89;  266.921;  276.075;  267.796;-349.99608;-31.50129
1077.43;  284.147;  272.075;  285.033;465.20127;41.89123
1077.97;  274.304;  274.075;  274.432; 9.00388; 0.81120
1078.50;  268.084;  267.075;  269.451;38.20319; 3.44362
1079.04;  259.608;  266.075;  259.633;-255.89961;-23.07822
1079.58;  263.845;  253.075;  264.887;439.66076;39.67043
1080.12;  260.924;  265.075;  261.383;-171.18146;-15.45334
1080.66;  275.215;  296.075;  276.577;-880.67959;-79.54261
1081.20;  256.320;  256.075;  257.266;10.32946; 0.93342
1081.73;  247.611;  254.075;  248.353;-271.60447;-24.55563
1082.27;  270.722;  255.075;  271.109;662.32809;59.91054
1082.81;  272.345;  247.075;  273.400;1086.29647;98.30920
1083.35;  264.636;  277.075;  264.935;-558.64265;-50.58195
1083.88;  264.122;  269.075;  266.062;-223.49567;-20.24632
1084.42;  279.659;  294.075;  280.563;-647.52016;-58.68751
1084.96;  256.197;  240.075;  257.400;725.90362;65.82436
1085.50;  267.505;  282.075;  268.081;-679.72451;-61.66742
1086.04;  262.222;  257.075;  263.456;242.37699;22.00033
1086.57;  287.547;  291.075;  287.756;-166.59237;-15.12892
1087.11;  264.827;  298.075;  265.053;-1587.36989;-144.22669
1087.65;  256.797;  255.075;  257.575;83.79500; 7.61729
1088.19;  279.581;  288.075;  281.062;-419.37184;-38.14134
1088.72;  264.934;  271.075;  265.763;-313.54239;-28.53036
1089.26;  256.512;  248.075;  257.508;435.63516;39.65959
1089.80;  250.860;  256.075;  251.534;-272.58199;-24.82771
1090.33;  289.213;  294.075;  290.623;-247.57591;-22.56118
1090.87;  244.404;  227.075;  245.043;912.80719;83.22358
1091.41;  249.154;  254.075;  250.009;-272.48417;-24.85549
1091.95;  267.798;  239.075;  268.389;1536.15253;140.19388
1092.48;  276.629;  303.075;  278.026;-1452.93509;-132.66442
1093.02;  251.884;  228.075;  252.889;1331.75227;121.65923
1093.56;  269.729;  266.075;  271.308;206.17556;18.84395
1094.09;  245.073;  218.075;  245.545;1543.28091;141.12144
1094.63;  245.714;  266.075;  247.341;-1163.63350;-106.45774
1095.17;  252.117;  202.075;  252.694;2982.26014;272.97282
1095.70;  264.916;  255.075;  266.036;589.91976;54.02311
1096.24;  254.835;  260.075;  255.484;-317.94164;-29.13042
1096.78;  250.035;  264.075;  251.560;-862.82857;-79.09268
1097.31;  253.505;  246.075;  253.844;472.17038;43.30349
1097.85;  259.180;  274.075;  260.774;-927.83637;-85.13494
1098.39;  244.198;  214.075;  244.909;1940.24859;178.11723
1098.92;  258.571;  253.075;  260.089;357.27385;32.81420
1099.46;  265.967;  251.075;  266.701;986.64091;90.66331
1099.99;  254.065;  270.075;  255.243;-1042.40696;-95.83442
1100.53;  260.644;  248.075;  261.759;861.11670;79.20596

